'Id: "" Comment: "" Operator: "Lab Manager" Anode: "Cu" Scantype: "Coupled TwoTheta/Theta" TimePerStep: "192" 
5.0000 7.891
5.0096 7.344
5.0192 7.375
5.0289 7.750
5.0385 7.771
5.0481 7.479
5.0577 6.958
5.0673 7.188
5.0769 7.021
5.0866 7.000
5.0962 7.214
5.1058 7.042
5.1154 7.099
5.1250 6.927
5.1346 7.021
5.1443 6.807
5.1539 6.990
5.1635 6.932
5.1731 6.958
5.1827 6.849
5.1923 7.016
5.2020 6.802
5.2116 6.813
5.2212 6.974
5.2308 6.536
5.2404 6.714
5.2500 6.573
5.2597 6.792
5.2693 6.479
5.2789 6.495
5.2885 6.854
5.2981 6.708
5.3077 6.516
5.3174 6.750
5.3270 6.130
5.3366 6.990
5.3462 6.641
5.3558 6.651
5.3654 6.589
5.3751 6.411
5.3847 6.500
5.3943 6.563
5.4039 6.255
5.4135 6.151
5.4231 6.313
5.4328 6.484
5.4424 6.026
5.4520 6.484
5.4616 6.490
5.4712 6.911
5.4808 6.214
5.4905 6.245
5.5001 6.094
5.5097 6.172
5.5193 6.188
5.5289 6.318
5.5386 6.453
5.5482 5.927
5.5578 6.073
5.5674 6.318
5.5770 6.078
5.5866 6.000
5.5963 5.995
5.6059 6.219
5.6155 6.115
5.6251 5.948
5.6347 6.307
5.6443 6.094
5.6540 5.760
5.6636 5.969
5.6732 6.094
5.6828 6.240
5.6924 5.464
5.7020 5.875
5.7117 5.885
5.7213 6.063
5.7309 5.844
5.7405 6.094
5.7501 5.781
5.7597 6.016
5.7694 5.901
5.7790 6.422
5.7886 5.865
5.7982 6.047
5.8078 5.974
5.8174 5.693
5.8271 6.036
5.8367 5.698
5.8463 5.839
5.8559 5.984
5.8655 5.740
5.8751 5.786
5.8848 5.839
5.8944 5.458
5.9040 5.646
5.9136 5.802
5.9232 5.568
5.9328 5.370
5.9425 5.750
5.9521 5.552
5.9617 5.693
5.9713 5.807
5.9809 5.396
5.9905 5.536
6.0002 5.526
6.0098 5.453
6.0194 5.667
6.0290 5.526
6.0386 5.552
6.0483 5.391
6.0579 5.161
6.0675 5.500
6.0771 5.818
6.0867 5.271
6.0963 5.536
6.1060 5.313
6.1156 5.661
6.1252 5.500
6.1348 5.135
6.1444 5.198
6.1540 5.526
6.1637 5.557
6.1733 5.438
6.1829 5.323
6.1925 5.354
6.2021 5.542
6.2117 5.385
6.2214 5.234
6.2310 5.484
6.2406 5.286
6.2502 5.620
6.2598 5.276
6.2694 5.365
6.2791 5.427
6.2887 5.245
6.2983 5.313
6.3079 5.125
6.3175 5.302
6.3271 5.328
6.3368 4.990
6.3464 5.135
6.3560 4.922
6.3656 5.266
6.3752 5.068
6.3848 5.021
6.3945 5.094
6.4041 5.354
6.4137 5.099
6.4233 5.333
6.4329 4.943
6.4425 4.964
6.4522 5.104
6.4618 4.953
6.4714 4.984
6.4810 4.969
6.4906 5.099
6.5003 4.859
6.5099 4.823
6.5195 5.042
6.5291 4.849
6.5387 4.990
6.5483 4.776
6.5580 4.932
6.5676 4.609
6.5772 4.797
6.5868 4.964
6.5964 4.906
6.6060 4.479
6.6157 4.766
6.6253 4.760
6.6349 4.688
6.6445 4.828
6.6541 4.448
6.6637 4.688
6.6734 4.292
6.6830 4.724
6.6926 4.625
6.7022 4.510
6.7118 4.682
6.7214 4.714
6.7311 4.260
6.7407 4.578
6.7503 4.677
6.7599 4.792
6.7695 4.510
6.7791 4.557
6.7888 4.589
6.7984 4.620
6.8080 4.427
6.8176 4.458
6.8272 4.422
6.8368 4.375
6.8465 4.307
6.8561 4.339
6.8657 4.521
6.8753 4.417
6.8849 4.500
6.8945 4.313
6.9042 4.510
6.9138 4.156
6.9234 4.359
6.9330 4.557
6.9426 4.417
6.9522 4.396
6.9619 4.422
6.9715 4.391
6.9811 4.109
6.9907 4.474
7.0003 4.276
7.0100 4.276
7.0196 4.036
7.0292 4.208
7.0388 4.292
7.0484 4.406
7.0580 4.443
7.0677 3.948
7.0773 4.516
7.0869 4.281
7.0965 4.135
7.1061 4.229
7.1157 3.974
7.1254 3.974
7.1350 4.328
7.1446 4.234
7.1542 4.094
7.1638 4.094
7.1734 3.969
7.1831 4.328
7.1927 3.875
7.2023 4.021
7.2119 3.927
7.2215 4.359
7.2311 4.104
7.2408 4.115
7.2504 4.089
7.2600 3.859
7.2696 3.813
7.2792 4.010
7.2888 3.990
7.2985 4.089
7.3081 3.661
7.3177 3.859
7.3273 3.885
7.3369 4.167
7.3465 3.984
7.3562 3.953
7.3658 4.042
7.3754 3.995
7.3850 3.927
7.3946 3.849
7.4042 3.661
7.4139 3.927
7.4235 3.979
7.4331 3.948
7.4427 3.885
7.4523 3.948
7.4619 4.177
7.4716 3.484
7.4812 3.979
7.4908 3.604
7.5004 3.552
7.5100 3.682
7.5197 3.578
7.5293 3.781
7.5389 3.714
7.5485 3.703
7.5581 3.740
7.5677 3.641
7.5774 3.833
7.5870 3.693
7.5966 3.635
7.6062 3.677
7.6158 3.469
7.6254 3.719
7.6351 3.667
7.6447 3.620
7.6543 3.630
7.6639 3.380
7.6735 3.510
7.6831 3.792
7.6928 3.573
7.7024 3.427
7.7120 3.594
7.7216 3.495
7.7312 3.547
7.7408 3.740
7.7505 3.620
7.7601 3.276
7.7697 3.318
7.7793 3.427
7.7889 3.313
7.7985 3.453
7.8082 3.339
7.8178 3.464
7.8274 3.552
7.8370 3.484
7.8466 3.474
7.8562 3.349
7.8659 3.359
7.8755 3.526
7.8851 3.422
7.8947 3.354
7.9043 3.391
7.9139 3.182
7.9236 3.344
7.9332 3.344
7.9428 3.182
7.9524 3.391
7.9620 3.417
7.9716 3.234
7.9813 3.234
7.9909 3.188
8.0005 3.521
8.0101 3.313
8.0197 3.177
8.0294 3.333
8.0390 3.234
8.0486 3.203
8.0582 3.141
8.0678 3.255
8.0774 3.297
8.0871 3.339
8.0967 3.146
8.1063 3.234
8.1159 3.214
8.1255 3.083
8.1351 2.901
8.1448 3.000
8.1544 3.292
8.1640 3.089
8.1736 2.990
8.1832 3.313
8.1928 3.010
8.2025 3.250
8.2121 3.052
8.2217 3.031
8.2313 2.875
8.2409 2.948
8.2505 3.042
8.2602 2.948
8.2698 3.094
8.2794 2.943
8.2890 2.990
8.2986 3.120
8.3082 2.953
8.3179 2.865
8.3275 2.875
8.3371 2.693
8.3467 2.948
8.3563 2.953
8.3659 2.818
8.3756 2.911
8.3852 2.750
8.3948 2.807
8.4044 3.141
8.4140 2.906
8.4236 3.005
8.4333 2.849
8.4429 2.797
8.4525 3.125
8.4621 2.688
8.4717 2.688
8.4813 2.938
8.4910 2.745
8.5006 2.656
8.5102 2.656
8.5198 2.802
8.5294 2.724
8.5391 2.594
8.5487 2.656
8.5583 2.906
8.5679 2.828
8.5775 2.948
8.5871 2.359
8.5968 2.865
8.6064 2.656
8.6160 2.813
8.6256 2.583
8.6352 2.547
8.6448 2.953
8.6545 2.740
8.6641 2.542
8.6737 2.615
8.6833 2.807
8.6929 2.500
8.7025 2.917
8.7122 2.589
8.7218 2.729
8.7314 2.625
8.7410 2.885
8.7506 2.771
8.7602 2.984
8.7699 3.490
8.7795 3.708
8.7891 3.240
8.7987 3.234
8.8083 3.021
8.8179 2.917
8.8276 2.677
8.8372 2.589
8.8468 2.661
8.8564 2.589
8.8660 2.667
8.8756 2.594
8.8853 2.589
8.8949 2.531
8.9045 2.484
8.9141 2.417
8.9237 2.547
8.9333 2.495
8.9430 2.526
8.9526 2.443
8.9622 2.599
8.9718 2.724
8.9814 2.438
8.9911 2.339
9.0007 2.307
9.0103 2.469
9.0199 2.286
9.0295 2.448
9.0391 2.396
9.0488 2.349
9.0584 2.453
9.0680 2.453
9.0776 2.375
9.0872 2.188
9.0968 2.484
9.1065 2.354
9.1161 2.344
9.1257 2.479
9.1353 2.406
9.1449 2.188
9.1545 2.281
9.1642 2.375
9.1738 2.333
9.1834 2.271
9.1930 2.307
9.2026 2.188
9.2122 2.365
9.2219 2.333
9.2315 2.010
9.2411 2.365
9.2507 2.250
9.2603 2.563
9.2699 2.411
9.2796 2.229
9.2892 2.370
9.2988 2.484
9.3084 2.281
9.3180 2.323
9.3276 2.542
9.3373 2.318
9.3469 2.469
9.3565 2.349
9.3661 2.260
9.3757 2.406
9.3853 2.208
9.3950 2.740
9.4046 2.589
9.4142 2.818
9.4238 2.943
9.4334 2.943
9.4430 3.365
9.4527 3.453
9.4623 3.641
9.4719 3.521
9.4815 3.406
9.4911 2.818
9.5008 2.464
9.5104 2.422
9.5200 2.375
9.5296 2.047
9.5392 1.979
9.5488 2.120
9.5585 2.104
9.5681 1.948
9.5777 2.234
9.5873 2.151
9.5969 2.016
9.6065 1.911
9.6162 2.016
9.6258 1.885
9.6354 2.047
9.6450 2.021
9.6546 2.042
9.6642 1.938
9.6739 1.865
9.6835 1.818
9.6931 1.974
9.7027 1.755
9.7123 1.875
9.7219 1.953
9.7316 1.719
9.7412 1.990
9.7508 2.047
9.7604 1.927
9.7700 1.958
9.7796 1.865
9.7893 1.807
9.7989 1.943
9.8085 1.792
9.8181 2.036
9.8277 2.057
9.8373 1.609
9.8470 1.865
9.8566 1.661
9.8662 1.677
9.8758 2.010
9.8854 1.745
9.8950 1.781
9.9047 1.870
9.9143 1.802
9.9239 1.813
9.9335 1.724
9.9431 1.625
9.9527 1.708
9.9624 1.849
9.9720 1.688
9.9816 1.813
9.9912 1.776
10.0008 1.755
10.0105 1.724
10.0201 1.542
10.0297 1.833
10.0393 1.635
10.0489 1.651
10.0585 1.646
10.0682 1.776
10.0778 1.781
10.0874 1.771
10.0970 1.714
10.1066 1.776
10.1162 1.766
10.1259 1.734
10.1355 1.740
10.1451 1.896
10.1547 1.661
10.1643 1.766
10.1739 1.828
10.1836 1.693
10.1932 1.667
10.2028 1.547
10.2124 1.724
10.2220 1.630
10.2316 1.568
10.2413 1.672
10.2509 1.797
10.2605 1.661
10.2701 1.557
10.2797 1.609
10.2893 1.609
10.2990 1.599
10.3086 1.620
10.3182 1.620
10.3278 1.609
10.3374 1.656
10.3470 1.635
10.3567 1.880
10.3663 1.760
10.3759 1.531
10.3855 1.740
10.3951 1.672
10.4047 1.672
10.4144 1.745
10.4240 1.469
10.4336 1.599
10.4432 1.698
10.4528 1.698
10.4624 1.698
10.4721 1.776
10.4817 1.688
10.4913 1.490
10.5009 1.557
10.5105 1.599
10.5202 1.703
10.5298 1.578
10.5394 1.703
10.5490 1.391
10.5586 1.401
10.5682 1.583
10.5779 1.552
10.5875 1.688
10.5971 1.484
10.6067 1.484
10.6163 1.578
10.6259 1.583
10.6356 1.521
10.6452 1.693
10.6548 1.542
10.6644 1.573
10.6740 1.688
10.6836 1.563
10.6933 1.661
10.7029 1.578
10.7125 1.583
10.7221 1.526
10.7317 1.625
10.7413 1.708
10.7510 1.443
10.7606 1.604
10.7702 1.589
10.7798 1.563
10.7894 1.391
10.7990 1.500
10.8087 1.578
10.8183 1.708
10.8279 1.542
10.8375 1.526
10.8471 1.542
10.8567 1.594
10.8664 1.453
10.8760 1.328
10.8856 1.620
10.8952 1.615
10.9048 1.427
10.9144 1.370
10.9241 1.474
10.9337 1.510
10.9433 1.573
10.9529 1.464
10.9625 1.453
10.9721 1.563
10.9818 1.490
10.9914 1.599
11.0010 1.474
11.0106 1.495
11.0202 1.417
11.0299 1.276
11.0395 1.344
11.0491 1.432
11.0587 1.594
11.0683 1.443
11.0779 1.625
11.0876 1.479
11.0972 1.490
11.1068 1.484
11.1164 1.615
11.1260 1.401
11.1356 1.510
11.1453 1.365
11.1549 1.516
11.1645 1.302
11.1741 1.495
11.1837 1.646
11.1933 1.516
11.2030 1.396
11.2126 1.458
11.2222 1.359
11.2318 1.542
11.2414 1.417
11.2510 1.354
11.2607 1.302
11.2703 1.417
11.2799 1.354
11.2895 1.385
11.2991 1.453
11.3087 1.438
11.3184 1.526
11.3280 1.344
11.3376 1.521
11.3472 1.490
11.3568 1.385
11.3664 1.396
11.3761 1.260
11.3857 1.411
11.3953 1.411
11.4049 1.479
11.4145 1.526
11.4241 1.385
11.4338 1.458
11.4434 1.641
11.4530 1.255
11.4626 1.432
11.4722 1.521
11.4819 1.193
11.4915 1.417
11.5011 1.250
11.5107 1.490
11.5203 1.307
11.5299 1.432
11.5396 1.453
11.5492 1.250
11.5588 1.500
11.5684 1.385
11.5780 1.406
11.5876 1.339
11.5973 1.281
11.6069 1.401
11.6165 1.271
11.6261 1.281
11.6357 1.411
11.6453 1.250
11.6550 1.396
11.6646 1.427
11.6742 1.438
11.6838 1.479
11.6934 1.292
11.7030 1.313
11.7127 1.422
11.7223 1.344
11.7319 1.375
11.7415 1.427
11.7511 1.307
11.7607 1.411
11.7704 1.333
11.7800 1.422
11.7896 1.359
11.7992 1.344
11.8088 1.349
11.8184 1.370
11.8281 1.401
11.8377 1.401
11.8473 1.380
11.8569 1.297
11.8665 1.245
11.8761 1.328
11.8858 1.375
11.8954 1.307
11.9050 1.286
11.9146 1.474
11.9242 1.276
11.9338 1.344
11.9435 1.234
11.9531 1.396
11.9627 1.281
11.9723 1.203
11.9819 1.339
11.9916 1.255
12.0012 1.260
12.0108 1.156
12.0204 1.177
12.0300 1.313
12.0396 1.318
12.0493 1.297
12.0589 1.182
12.0685 1.349
12.0781 1.328
12.0877 1.385
12.0973 1.333
12.1070 1.266
12.1166 1.391
12.1262 1.245
12.1358 1.182
12.1454 1.313
12.1550 1.266
12.1647 1.240
12.1743 1.234
12.1839 1.182
12.1935 1.130
12.2031 1.161
12.2127 1.297
12.2224 1.328
12.2320 1.266
12.2416 1.365
12.2512 1.495
12.2608 1.266
12.2704 1.229
12.2801 1.391
12.2897 1.286
12.2993 1.375
12.3089 1.255
12.3185 1.292
12.3281 1.354
12.3378 1.229
12.3474 1.344
12.3570 1.281
12.3666 1.245
12.3762 1.302
12.3858 1.323
12.3955 1.333
12.4051 1.286
12.4147 1.151
12.4243 1.365
12.4339 1.286
12.4435 1.292
12.4532 1.172
12.4628 1.208
12.4724 1.193
12.4820 1.411
12.4916 1.229
12.5013 1.328
12.5109 1.266
12.5205 1.344
12.5301 1.260
12.5397 1.115
12.5493 1.115
12.5590 1.333
12.5686 1.229
12.5782 1.240
12.5878 1.292
12.5974 1.135
12.6070 1.198
12.6167 1.115
12.6263 1.224
12.6359 1.193
12.6455 1.161
12.6551 1.229
12.6647 1.224
12.6744 1.328
12.6840 1.198
12.6936 1.156
12.7032 1.219
12.7128 1.203
12.7224 1.141
12.7321 1.203
12.7417 1.130
12.7513 1.240
12.7609 1.156
12.7705 1.385
12.7801 1.135
12.7898 1.234
12.7994 1.208
12.8090 1.266
12.8186 1.094
12.8282 1.240
12.8378 1.057
12.8475 1.120
12.8571 1.057
12.8667 1.318
12.8763 1.109
12.8859 1.161
12.8955 1.323
12.9052 1.172
12.9148 1.177
12.9244 1.203
12.9340 1.099
12.9436 1.245
12.9532 1.286
12.9629 1.125
12.9725 1.219
12.9821 1.130
12.9917 1.099
13.0013 1.135
13.0110 1.198
13.0206 1.193
13.0302 1.135
13.0398 1.151
13.0494 1.167
13.0590 1.047
13.0687 1.078
13.0783 0.984
13.0879 1.120
13.0975 1.224
13.1071 1.104
13.1167 1.135
13.1264 1.125
13.1360 1.120
13.1456 1.073
13.1552 1.245
13.1648 1.167
13.1744 1.224
13.1841 1.099
13.1937 1.281
13.2033 1.031
13.2129 1.146
13.2225 1.089
13.2321 1.208
13.2418 1.000
13.2514 1.094
13.2610 1.219
13.2706 1.135
13.2802 1.115
13.2898 1.104
13.2995 1.234
13.3091 0.984
13.3187 1.141
13.3283 1.141
13.3379 1.120
13.3475 1.063
13.3572 1.057
13.3668 1.193
13.3764 1.203
13.3860 1.052
13.3956 1.068
13.4052 1.219
13.4149 1.135
13.4245 1.130
13.4341 1.057
13.4437 1.203
13.4533 1.177
13.4630 1.234
13.4726 1.161
13.4822 1.203
13.4918 1.146
13.5014 1.219
13.5110 0.974
13.5207 1.141
13.5303 1.130
13.5399 1.047
13.5495 1.302
13.5591 1.010
13.5687 1.214
13.5784 1.214
13.5880 1.057
13.5976 1.286
13.6072 1.120
13.6168 1.146
13.6264 1.141
13.6361 1.208
13.6457 1.130
13.6553 1.016
13.6649 1.115
13.6745 1.094
13.6841 1.026
13.6938 1.156
13.7034 1.203
13.7130 1.005
13.7226 1.297
13.7322 1.042
13.7418 1.036
13.7515 1.021
13.7611 1.089
13.7707 1.063
13.7803 1.198
13.7899 1.000
13.7995 1.036
13.8092 1.047
13.8188 1.021
13.8284 1.042
13.8380 1.005
13.8476 1.203
13.8572 1.068
13.8669 1.026
13.8765 0.932
13.8861 1.115
13.8957 1.057
13.9053 1.005
13.9149 0.880
13.9246 1.016
13.9342 1.005
13.9438 1.208
13.9534 1.125
13.9630 1.089
13.9727 1.104
13.9823 1.078
13.9919 1.125
14.0015 1.026
14.0111 1.021
14.0207 1.026
14.0304 1.010
14.0400 1.042
14.0496 1.042
14.0592 1.240
14.0688 1.109
14.0784 1.063
14.0881 1.047
14.0977 0.984
14.1073 1.198
14.1169 1.109
14.1265 0.948
14.1361 1.010
14.1458 1.094
14.1554 1.083
14.1650 0.969
14.1746 0.984
14.1842 0.979
14.1938 1.063
14.2035 1.005
14.2131 1.010
14.2227 1.000
14.2323 1.047
14.2419 0.854
14.2515 1.172
14.2612 1.031
14.2708 1.042
14.2804 1.047
14.2900 1.078
14.2996 0.995
14.3092 1.031
14.3189 1.057
14.3285 1.089
14.3381 1.036
14.3477 1.036
14.3573 1.141
14.3669 1.109
14.3766 0.969
14.3862 1.120
14.3958 1.182
14.4054 0.984
14.4150 1.005
14.4246 1.109
14.4343 1.010
14.4439 0.948
14.4535 1.219
14.4631 1.031
14.4727 0.911
14.4824 0.990
14.4920 0.964
14.5016 1.052
14.5112 0.979
14.5208 1.078
14.5304 1.016
14.5401 0.901
14.5497 1.005
14.5593 0.995
14.5689 0.948
14.5785 0.979
14.5881 1.068
14.5978 0.917
14.6074 1.016
14.6170 0.953
14.6266 1.214
14.6362 0.870
14.6458 0.911
14.6555 0.927
14.6651 1.042
14.6747 0.984
14.6843 1.089
14.6939 1.010
14.7035 1.078
14.7132 0.875
14.7228 1.073
14.7324 0.906
14.7420 1.042
14.7516 0.943
14.7612 0.818
14.7709 1.026
14.7805 0.974
14.7901 0.854
14.7997 1.047
14.8093 0.932
14.8189 0.990
14.8286 0.849
14.8382 1.021
14.8478 1.021
14.8574 0.880
14.8670 1.010
14.8766 0.958
14.8863 0.979
14.8959 1.047
14.9055 0.974
14.9151 0.964
14.9247 1.026
14.9343 1.010
14.9440 0.885
14.9536 1.026
14.9632 0.984
14.9728 1.010
14.9824 1.026
14.9921 1.031
15.0017 1.047
15.0113 1.005
15.0209 0.938
15.0305 1.036
15.0401 1.063
15.0498 1.005
15.0594 1.057
15.0690 1.057
15.0786 1.021
15.0882 0.927
15.0978 0.896
15.1075 0.984
15.1171 0.927
15.1267 1.000
15.1363 0.964
15.1459 0.943
15.1555 0.943
15.1652 0.875
15.1748 0.932
15.1844 0.911
15.1940 0.911
15.2036 1.063
15.2132 1.063
15.2229 1.010
15.2325 0.911
15.2421 0.969
15.2517 0.979
15.2613 0.969
15.2709 1.005
15.2806 0.990
15.2902 0.953
15.2998 1.047
15.3094 0.979
15.3190 0.833
15.3286 0.896
15.3383 1.073
15.3479 0.974
15.3575 0.948
15.3671 1.000
15.3767 0.839
15.3863 0.859
15.3960 0.865
15.4056 0.995
15.4152 0.979
15.4248 0.839
15.4344 1.073
15.4440 1.078
15.4537 0.938
15.4633 1.047
15.4729 0.891
15.4825 0.896
15.4921 0.932
15.5018 0.859
15.5114 0.995
15.5210 0.943
15.5306 0.813
15.5402 0.823
15.5498 0.927
15.5595 0.885
15.5691 0.943
15.5787 0.922
15.5883 0.896
15.5979 0.995
15.6075 0.891
15.6172 0.917
15.6268 0.990
15.6364 0.995
15.6460 0.818
15.6556 0.995
15.6652 0.964
15.6749 0.917
15.6845 0.938
15.6941 0.755
15.7037 0.995
15.7133 1.073
15.7229 0.828
15.7326 0.901
15.7422 0.833
15.7518 0.896
15.7614 1.031
15.7710 0.922
15.7806 0.823
15.7903 0.938
15.7999 0.943
15.8095 0.896
15.8191 1.026
15.8287 0.875
15.8383 0.865
15.8480 0.943
15.8576 0.995
15.8672 0.828
15.8768 0.849
15.8864 0.823
15.8960 0.870
15.9057 0.917
15.9153 0.823
15.9249 1.000
15.9345 0.849
15.9441 0.896
15.9538 0.859
15.9634 0.807
15.9730 0.797
15.9826 0.896
15.9922 0.896
16.0018 1.000
16.0115 0.901
16.0211 0.818
16.0307 0.927
16.0403 1.005
16.0499 0.708
16.0595 0.880
16.0692 0.833
16.0788 0.927
16.0884 0.911
16.0980 0.849
16.1076 0.802
16.1172 0.922
16.1269 0.740
16.1365 0.828
16.1461 0.870
16.1557 0.865
16.1653 0.755
16.1749 0.896
16.1846 0.901
16.1942 0.875
16.2038 0.880
16.2134 0.885
16.2230 0.839
16.2326 0.766
16.2423 0.901
16.2519 0.953
16.2615 0.839
16.2711 0.661
16.2807 0.807
16.2903 0.938
16.3000 0.833
16.3096 0.740
16.3192 0.786
16.3288 0.818
16.3384 0.849
16.3480 0.792
16.3577 0.901
16.3673 0.724
16.3769 0.828
16.3865 0.807
16.3961 0.870
16.4057 0.802
16.4154 0.870
16.4250 0.771
16.4346 0.865
16.4442 0.844
16.4538 0.802
16.4635 0.938
16.4731 0.760
16.4827 0.839
16.4923 0.802
16.5019 0.833
16.5115 0.828
16.5212 0.849
16.5308 0.854
16.5404 0.828
16.5500 0.802
16.5596 0.922
16.5692 0.849
16.5789 0.875
16.5885 0.927
16.5981 0.818
16.6077 0.813
16.6173 0.813
16.6269 0.781
16.6366 0.938
16.6462 0.766
16.6558 0.818
16.6654 0.833
16.6750 0.891
16.6846 0.859
16.6943 0.797
16.7039 0.828
16.7135 0.740
16.7231 0.734
16.7327 0.797
16.7423 0.734
16.7520 0.891
16.7616 0.734
16.7712 0.818
16.7808 0.771
16.7904 0.792
16.8000 0.865
16.8097 0.828
16.8193 0.833
16.8289 0.839
16.8385 0.833
16.8481 0.828
16.8577 0.750
16.8674 0.958
16.8770 0.880
16.8866 0.771
16.8962 0.750
16.9058 0.792
16.9154 0.828
16.9251 0.833
16.9347 0.823
16.9443 0.849
16.9539 0.760
16.9635 0.849
16.9732 0.839
16.9828 0.833
16.9924 0.839
17.0020 0.807
17.0116 0.766
17.0212 0.818
17.0309 0.839
17.0405 0.776
17.0501 0.927
17.0597 0.901
17.0693 0.719
17.0789 0.656
17.0886 0.911
17.0982 0.813
17.1078 0.760
17.1174 0.823
17.1270 0.771
17.1366 0.854
17.1463 0.870
17.1559 0.766
17.1655 0.875
17.1751 0.901
17.1847 0.734
17.1943 0.932
17.2040 0.833
17.2136 0.849
17.2232 0.859
17.2328 1.016
17.2424 0.844
17.2520 0.750
17.2617 0.880
17.2713 0.708
17.2809 0.917
17.2905 0.797
17.3001 0.854
17.3097 0.740
17.3194 0.833
17.3290 0.844
17.3386 0.813
17.3482 0.781
17.3578 0.740
17.3674 0.818
17.3771 0.750
17.3867 0.797
17.3963 0.880
17.4059 0.854
17.4155 0.922
17.4251 0.828
17.4348 0.750
17.4444 0.719
17.4540 0.797
17.4636 0.625
17.4732 0.880
17.4829 0.844
17.4925 0.781
17.5021 0.802
17.5117 0.766
17.5213 0.766
17.5309 0.865
17.5406 0.760
17.5502 0.792
17.5598 0.813
17.5694 0.854
17.5790 0.833
17.5886 0.698
17.5983 0.875
17.6079 0.792
17.6175 0.771
17.6271 0.776
17.6367 0.755
17.6463 0.786
17.6560 0.771
17.6656 0.740
17.6752 0.891
17.6848 0.786
17.6944 0.766
17.7040 0.792
17.7137 0.813
17.7233 0.776
17.7329 0.818
17.7425 0.698
17.7521 0.823
17.7617 0.734
17.7714 0.854
17.7810 0.766
17.7906 0.849
17.8002 0.776
17.8098 0.875
17.8194 0.729
17.8291 0.828
17.8387 0.708
17.8483 0.854
17.8579 0.792
17.8675 0.828
17.8771 0.745
17.8868 0.667
17.8964 0.708
17.9060 0.750
17.9156 0.917
17.9252 0.714
17.9348 0.813
17.9445 0.833
17.9541 0.875
17.9637 0.766
17.9733 0.708
17.9829 0.818
17.9926 0.818
18.0022 0.667
18.0118 0.766
18.0214 0.734
18.0310 0.771
18.0406 0.865
18.0503 0.609
18.0599 0.792
18.0695 0.703
18.0791 0.734
18.0887 0.708
18.0983 0.766
18.1080 0.635
18.1176 0.766
18.1272 0.745
18.1368 0.714
18.1464 0.693
18.1560 0.875
18.1657 1.016
18.1753 0.703
18.1849 0.724
18.1945 0.786
18.2041 0.880
18.2137 0.693
18.2234 0.677
18.2330 0.922
18.2426 0.792
18.2522 0.849
18.2618 0.760
18.2714 0.813
18.2811 0.656
18.2907 0.786
18.3003 0.729
18.3099 0.901
18.3195 0.813
18.3291 0.786
18.3388 0.771
18.3484 0.875
18.3580 0.698
18.3676 0.786
18.3772 0.651
18.3868 0.651
18.3965 0.708
18.4061 0.714
18.4157 0.745
18.4253 0.703
18.4349 0.604
18.4446 0.818
18.4542 0.750
18.4638 0.714
18.4734 0.823
18.4830 0.677
18.4926 0.917
18.5023 0.828
18.5119 0.839
18.5215 0.750
18.5311 0.755
18.5407 0.823
18.5503 0.755
18.5600 0.807
18.5696 0.797
18.5792 0.766
18.5888 0.682
18.5984 0.578
18.6080 0.870
18.6177 0.766
18.6273 0.745
18.6369 0.719
18.6465 0.682
18.6561 0.698
18.6657 0.776
18.6754 0.635
18.6850 0.630
18.6946 0.740
18.7042 0.740
18.7138 0.630
18.7234 0.797
18.7331 0.734
18.7427 0.740
18.7523 0.703
18.7619 0.703
18.7715 0.714
18.7811 0.766
18.7908 0.609
18.8004 0.724
18.8100 0.703
18.8196 0.641
18.8292 0.630
18.8388 0.682
18.8485 0.807
18.8581 0.740
18.8677 0.724
18.8773 0.823
18.8869 0.724
18.8965 0.734
18.9062 0.714
18.9158 0.865
18.9254 0.729
18.9350 0.766
18.9446 0.708
18.9543 0.896
18.9639 0.906
18.9735 0.792
18.9831 0.896
18.9927 0.708
19.0023 0.766
19.0120 0.646
19.0216 0.667
19.0312 0.719
19.0408 0.849
19.0504 0.729
19.0600 0.651
19.0697 0.745
19.0793 0.781
19.0889 0.698
19.0985 0.724
19.1081 0.760
19.1177 0.734
19.1274 0.703
19.1370 0.708
19.1466 0.766
19.1562 0.589
19.1658 0.604
19.1754 0.651
19.1851 0.688
19.1947 0.625
19.2043 0.755
19.2139 0.771
19.2235 0.661
19.2331 0.729
19.2428 0.625
19.2524 0.781
19.2620 0.698
19.2716 0.771
19.2812 0.729
19.2908 0.688
19.3005 0.635
19.3101 0.724
19.3197 0.703
19.3293 0.646
19.3389 0.630
19.3485 0.750
19.3582 0.740
19.3678 0.729
19.3774 0.698
19.3870 0.734
19.3966 0.708
19.4062 0.750
19.4159 0.672
19.4255 0.719
19.4351 0.771
19.4447 0.714
19.4543 0.625
19.4640 0.641
19.4736 0.698
19.4832 0.729
19.4928 0.729
19.5024 0.771
19.5120 0.729
19.5217 0.755
19.5313 0.682
19.5409 0.599
19.5505 0.599
19.5601 0.693
19.5697 0.786
19.5794 0.703
19.5890 0.745
19.5986 0.693
19.6082 0.813
19.6178 0.740
19.6274 0.682
19.6371 0.646
19.6467 0.771
19.6563 0.672
19.6659 0.656
19.6755 0.776
19.6851 0.516
19.6948 0.667
19.7044 0.609
19.7140 0.714
19.7236 0.823
19.7332 0.693
19.7428 0.677
19.7525 0.635
19.7621 0.693
19.7717 0.745
19.7813 0.703
19.7909 0.656
19.8005 0.625
19.8102 0.698
19.8198 0.583
19.8294 0.661
19.8390 0.641
19.8486 0.542
19.8582 0.641
19.8679 0.719
19.8775 0.641
19.8871 0.641
19.8967 0.625
19.9063 0.771
19.9159 0.740
19.9256 0.656
19.9352 0.672
19.9448 0.661
19.9544 0.594
19.9640 0.750
19.9737 0.693
19.9833 0.682
19.9929 0.688
20.0025 0.568
20.0121 0.661
20.0217 0.698
20.0314 0.656
20.0410 0.630
20.0506 0.724
20.0602 0.635
20.0698 0.698
20.0794 0.740
20.0891 0.609
20.0987 0.641
20.1083 0.672
20.1179 0.661
20.1275 0.641
20.1371 0.594
20.1468 0.682
20.1564 0.615
20.1660 0.604
20.1756 0.682
20.1852 0.677
20.1948 0.568
20.2045 0.677
20.2141 0.693
20.2237 0.677
20.2333 0.568
20.2429 0.719
20.2525 0.724
20.2622 0.703
20.2718 0.526
20.2814 0.661
20.2910 0.589
20.3006 0.641
20.3102 0.641
20.3199 0.667
20.3295 0.708
20.3391 0.641
20.3487 0.724
20.3583 0.646
20.3679 0.563
20.3776 0.604
20.3872 0.630
20.3968 0.573
20.4064 0.542
20.4160 0.641
20.4256 0.635
20.4353 0.589
20.4449 0.625
20.4545 0.661
20.4641 0.630
20.4737 0.646
20.4834 0.536
20.4930 0.661
20.5026 0.667
20.5122 0.651
20.5218 0.693
20.5314 0.641
20.5411 0.604
20.5507 0.552
20.5603 0.604
20.5699 0.708
20.5795 0.609
20.5891 0.646
20.5988 0.646
20.6084 0.609
20.6180 0.568
20.6276 0.490
20.6372 0.708
20.6468 0.755
20.6565 0.724
20.6661 0.615
20.6757 0.677
20.6853 0.708
20.6949 0.594
20.7045 0.646
20.7142 0.661
20.7238 0.641
20.7334 0.599
20.7430 0.719
20.7526 0.688
20.7622 0.693
20.7719 0.828
20.7815 0.760
20.7911 0.630
20.8007 0.714
20.8103 0.854
20.8199 0.792
20.8296 0.771
20.8392 0.745
20.8488 0.729
20.8584 0.745
20.8680 0.786
20.8776 0.641
20.8873 0.760
20.8969 0.672
20.9065 0.594
20.9161 0.693
20.9257 0.615
20.9354 0.672
20.9450 0.734
20.9546 0.630
20.9642 0.635
20.9738 0.625
20.9834 0.661
20.9931 0.583
21.0027 0.635
21.0123 0.672
21.0219 0.547
21.0315 0.609
21.0411 0.651
21.0508 0.578
21.0604 0.594
21.0700 0.656
21.0796 0.625
21.0892 0.583
21.0988 0.682
21.1085 0.547
21.1181 0.635
21.1277 0.672
21.1373 0.583
21.1469 0.615
21.1565 0.682
21.1662 0.630
21.1758 0.536
21.1854 0.557
21.1950 0.589
21.2046 0.568
21.2142 0.630
21.2239 0.620
21.2335 0.667
21.2431 0.620
21.2527 0.656
21.2623 0.620
21.2719 0.682
21.2816 0.536
21.2912 0.646
21.3008 0.589
21.3104 0.615
21.3200 0.661
21.3296 0.563
21.3393 0.568
21.3489 0.589
21.3585 0.573
21.3681 0.646
21.3777 0.625
21.3873 0.656
21.3970 0.656
21.4066 0.594
21.4162 0.495
21.4258 0.677
21.4354 0.604
21.4451 0.604
21.4547 0.646
21.4643 0.604
21.4739 0.708
21.4835 0.547
21.4931 0.693
21.5028 0.625
21.5124 0.573
21.5220 0.573
21.5316 0.615
21.5412 0.547
21.5508 0.604
21.5605 0.521
21.5701 0.599
21.5797 0.620
21.5893 0.656
21.5989 0.625
21.6085 0.578
21.6182 0.615
21.6278 0.625
21.6374 0.615
21.6470 0.563
21.6566 0.526
21.6662 0.526
21.6759 0.620
21.6855 0.693
21.6951 0.563
21.7047 0.536
21.7143 0.620
21.7239 0.620
21.7336 0.568
21.7432 0.563
21.7528 0.615
21.7624 0.594
21.7720 0.552
21.7816 0.620
21.7913 0.547
21.8009 0.536
21.8105 0.495
21.8201 0.521
21.8297 0.516
21.8393 0.536
21.8490 0.510
21.8586 0.609
21.8682 0.630
21.8778 0.563
21.8874 0.594
21.8970 0.703
21.9067 0.604
21.9163 0.672
21.9259 0.568
21.9355 0.646
21.9451 0.552
21.9548 0.563
21.9644 0.604
21.9740 0.604
21.9836 0.609
21.9932 0.495
22.0028 0.542
22.0125 0.547
22.0221 0.766
22.0317 0.589
22.0413 0.615
22.0509 0.698
22.0605 0.656
22.0702 0.542
22.0798 0.604
22.0894 0.625
22.0990 0.568
22.1086 0.625
22.1182 0.490
22.1279 0.542
22.1375 0.547
22.1471 0.589
22.1567 0.594
22.1663 0.583
22.1759 0.547
22.1856 0.568
22.1952 0.479
22.2048 0.573
22.2144 0.589
22.2240 0.604
22.2336 0.557
22.2433 0.589
22.2529 0.646
22.2625 0.563
22.2721 0.589
22.2817 0.516
22.2913 0.510
22.3010 0.625
22.3106 0.677
22.3202 0.526
22.3298 0.510
22.3394 0.547
22.3490 0.505
22.3587 0.547
22.3683 0.573
22.3779 0.490
22.3875 0.484
22.3971 0.635
22.4067 0.557
22.4164 0.557
22.4260 0.568
22.4356 0.573
22.4452 0.443
22.4548 0.641
22.4645 0.464
22.4741 0.583
22.4837 0.552
22.4933 0.620
22.5029 0.474
22.5125 0.505
22.5222 0.469
22.5318 0.552
22.5414 0.521
22.5510 0.604
22.5606 0.516
22.5702 0.578
22.5799 0.589
22.5895 0.594
22.5991 0.526
22.6087 0.599
22.6183 0.526
22.6279 0.490
22.6376 0.594
22.6472 0.542
22.6568 0.589
22.6664 0.552
22.6760 0.589
22.6856 0.568
22.6953 0.578
22.7049 0.557
22.7145 0.542
22.7241 0.448
22.7337 0.516
22.7433 0.599
22.7530 0.599
22.7626 0.760
22.7722 0.646
22.7818 0.583
22.7914 0.625
22.8010 0.698
22.8107 0.651
22.8203 0.578
22.8299 0.568
22.8395 0.661
22.8491 0.625
22.8587 0.594
22.8684 0.505
22.8780 0.630
22.8876 0.630
22.8972 0.656
22.9068 0.563
22.9164 0.516
22.9261 0.651
22.9357 0.547
22.9453 0.573
22.9549 0.630
22.9645 0.604
22.9742 0.573
22.9838 0.672
22.9934 0.583
23.0030 0.516
23.0126 0.635
23.0222 0.703
23.0319 0.625
23.0415 0.771
23.0511 0.698
23.0607 0.667
23.0703 0.656
23.0799 0.667
23.0896 0.589
23.0992 0.625
23.1088 0.698
23.1184 0.646
23.1280 0.583
23.1376 0.568
23.1473 0.552
23.1569 0.604
23.1665 0.578
23.1761 0.583
23.1857 0.573
23.1953 0.531
23.2050 0.521
23.2146 0.490
23.2242 0.672
23.2338 0.453
23.2434 0.615
23.2530 0.521
23.2627 0.484
23.2723 0.510
23.2819 0.568
23.2915 0.448
23.3011 0.547
23.3107 0.542
23.3204 0.542
23.3300 0.573
23.3396 0.526
23.3492 0.500
23.3588 0.589
23.3684 0.521
23.3781 0.417
23.3877 0.578
23.3973 0.552
23.4069 0.630
23.4165 0.526
23.4262 0.448
23.4358 0.646
23.4454 0.552
23.4550 0.490
23.4646 0.682
23.4742 0.500
23.4839 0.526
23.4935 0.599
23.5031 0.495
23.5127 0.536
23.5223 0.474
23.5319 0.401
23.5416 0.474
23.5512 0.516
23.5608 0.505
23.5704 0.526
23.5800 0.563
23.5896 0.573
23.5993 0.578
23.6089 0.448
23.6185 0.526
23.6281 0.573
23.6377 0.495
23.6473 0.510
23.6570 0.583
23.6666 0.505
23.6762 0.516
23.6858 0.495
23.6954 0.563
23.7050 0.516
23.7147 0.474
23.7243 0.604
23.7339 0.536
23.7435 0.568
23.7531 0.516
23.7627 0.521
23.7724 0.594
23.7820 0.521
23.7916 0.521
23.8012 0.589
23.8108 0.552
23.8204 0.495
23.8301 0.531
23.8397 0.578
23.8493 0.526
23.8589 0.583
23.8685 0.620
23.8781 0.448
23.8878 0.594
23.8974 0.521
23.9070 0.526
23.9166 0.620
23.9262 0.557
23.9359 0.464
23.9455 0.557
23.9551 0.490
23.9647 0.490
23.9743 0.573
23.9839 0.505
23.9936 0.448
24.0032 0.547
24.0128 0.495
24.0224 0.531
24.0320 0.526
24.0416 0.464
24.0513 0.589
24.0609 0.479
24.0705 0.438
24.0801 0.672
24.0897 0.526
24.0993 0.474
24.1090 0.505
24.1186 0.547
24.1282 0.448
24.1378 0.458
24.1474 0.536
24.1570 0.448
24.1667 0.578
24.1763 0.464
24.1859 0.568
24.1955 0.490
24.2051 0.552
24.2147 0.453
24.2244 0.547
24.2340 0.505
24.2436 0.500
24.2532 0.469
24.2628 0.557
24.2724 0.464
24.2821 0.557
24.2917 0.531
24.3013 0.484
24.3109 0.453
24.3205 0.531
24.3301 0.604
24.3398 0.531
24.3494 0.479
24.3590 0.500
24.3686 0.542
24.3782 0.495
24.3878 0.552
24.3975 0.443
24.4071 0.479
24.4167 0.526
24.4263 0.417
24.4359 0.500
24.4456 0.542
24.4552 0.526
24.4648 0.500
24.4744 0.510
24.4840 0.521
24.4936 0.510
24.5033 0.453
24.5129 0.479
24.5225 0.453
24.5321 0.464
24.5417 0.458
24.5513 0.484
24.5610 0.385
24.5706 0.620
24.5802 0.474
24.5898 0.484
24.5994 0.516
24.6090 0.526
24.6187 0.552
24.6283 0.521
24.6379 0.464
24.6475 0.510
24.6571 0.443
24.6667 0.542
24.6764 0.484
24.6860 0.490
24.6956 0.448
24.7052 0.427
24.7148 0.526
24.7244 0.526
24.7341 0.542
24.7437 0.510
24.7533 0.578
24.7629 0.630
24.7725 0.484
24.7821 0.427
24.7918 0.490
24.8014 0.422
24.8110 0.453
24.8206 0.469
24.8302 0.411
24.8398 0.479
24.8495 0.563
24.8591 0.490
24.8687 0.526
24.8783 0.495
24.8879 0.479
24.8975 0.526
24.9072 0.531
24.9168 0.479
24.9264 0.438
24.9360 0.432
24.9456 0.557
24.9553 0.375
24.9649 0.443
24.9745 0.401
24.9841 0.490
24.9937 0.484
25.0033 0.453
25.0130 0.328
25.0226 0.500
25.0322 0.630
25.0418 0.563
25.0514 0.536
25.0610 0.458
25.0707 0.552
25.0803 0.448
25.0899 0.474
25.0995 0.547
25.1091 0.474
25.1187 0.521
25.1284 0.464
25.1380 0.536
25.1476 0.573
25.1572 0.578
25.1668 0.615
25.1764 0.495
25.1861 0.526
25.1957 0.385
25.2053 0.427
25.2149 0.464
25.2245 0.536
25.2341 0.500
25.2438 0.526
25.2534 0.448
25.2630 0.620
25.2726 0.552
25.2822 0.516
25.2918 0.490
25.3015 0.531
25.3111 0.422
25.3207 0.469
25.3303 0.531
25.3399 0.552
25.3495 0.526
25.3592 0.536
25.3688 0.516
25.3784 0.510
25.3880 0.531
25.3976 0.542
25.4073 0.552
25.4169 0.526
25.4265 0.531
25.4361 0.490
25.4457 0.464
25.4553 0.396
25.4650 0.516
25.4746 0.573
25.4842 0.417
25.4938 0.526
25.5034 0.630
25.5130 0.526
25.5227 0.557
25.5323 0.552
25.5419 0.443
25.5515 0.448
25.5611 0.505
25.5707 0.521
25.5804 0.443
25.5900 0.521
25.5996 0.526
25.6092 0.469
25.6188 0.380
25.6284 0.583
25.6381 0.495
25.6477 0.531
25.6573 0.547
25.6669 0.547
25.6765 0.417
25.6861 0.469
25.6958 0.427
25.7054 0.542
25.7150 0.521
25.7246 0.438
25.7342 0.594
25.7438 0.484
25.7535 0.573
25.7631 0.417
25.7727 0.391
25.7823 0.510
25.7919 0.505
25.8015 0.589
25.8112 0.490
25.8208 0.495
25.8304 0.495
25.8400 0.495
25.8496 0.448
25.8592 0.505
25.8689 0.443
25.8785 0.458
25.8881 0.615
25.8977 0.490
25.9073 0.448
25.9170 0.495
25.9266 0.516
25.9362 0.484
25.9458 0.432
25.9554 0.464
25.9650 0.443
25.9747 0.500
25.9843 0.484
25.9939 0.526
26.0035 0.427
26.0131 0.375
26.0227 0.432
26.0324 0.542
26.0420 0.401
26.0516 0.568
26.0612 0.495
26.0708 0.474
26.0804 0.510
26.0901 0.443
26.0997 0.438
26.1093 0.526
26.1189 0.495
26.1285 0.417
26.1381 0.536
26.1478 0.474
26.1574 0.474
26.1670 0.453
26.1766 0.380
26.1862 0.557
26.1958 0.443
26.2055 0.563
26.2151 0.422
26.2247 0.573
26.2343 0.536
26.2439 0.510
26.2535 0.484
26.2632 0.385
26.2728 0.594
26.2824 0.531
26.2920 0.448
26.3016 0.516
26.3112 0.458
26.3209 0.479
26.3305 0.557
26.3401 0.604
26.3497 0.552
26.3593 0.464
26.3689 0.516
26.3786 0.521
26.3882 0.427
26.3978 0.464
26.4074 0.469
26.4170 0.552
26.4267 0.526
26.4363 0.510
26.4459 0.526
26.4555 0.516
26.4651 0.583
26.4747 0.609
26.4844 0.630
26.4940 0.620
26.5036 0.667
26.5132 0.708
26.5228 0.604
26.5324 0.635
26.5421 0.641
26.5517 0.766
26.5613 0.781
26.5709 0.828
26.5805 0.854
26.5901 0.781
26.5998 0.901
26.6094 0.917
26.6190 0.828
26.6286 0.932
26.6382 0.901
26.6478 0.833
26.6575 0.771
26.6671 0.792
26.6767 0.667
26.6863 0.682
26.6959 0.661
26.7055 0.714
26.7152 0.609
26.7248 0.578
26.7344 0.578
26.7440 0.573
26.7536 0.490
26.7632 0.568
26.7729 0.599
26.7825 0.479
26.7921 0.516
26.8017 0.578
26.8113 0.536
26.8209 0.547
26.8306 0.505
26.8402 0.505
26.8498 0.526
26.8594 0.469
26.8690 0.406
26.8786 0.464
26.8883 0.505
26.8979 0.401
26.9075 0.547
26.9171 0.484
26.9267 0.464
26.9364 0.380
26.9460 0.568
26.9556 0.573
26.9652 0.505
26.9748 0.448
26.9844 0.380
26.9941 0.469
27.0037 0.438
27.0133 0.417
27.0229 0.568
27.0325 0.500
27.0421 0.469
27.0518 0.438
27.0614 0.422
27.0710 0.490
27.0806 0.458
27.0902 0.474
27.0998 0.505
27.1095 0.479
27.1191 0.510
27.1287 0.422
27.1383 0.453
27.1479 0.458
27.1575 0.448
27.1672 0.401
27.1768 0.469
27.1864 0.490
27.1960 0.469
27.2056 0.427
27.2152 0.411
27.2249 0.401
27.2345 0.411
27.2441 0.458
27.2537 0.464
27.2633 0.495
27.2729 0.495
27.2826 0.339
27.2922 0.516
27.3018 0.547
27.3114 0.427
27.3210 0.474
27.3306 0.422
27.3403 0.448
27.3499 0.453
27.3595 0.521
27.3691 0.458
27.3787 0.380
27.3883 0.531
27.3980 0.443
27.4076 0.359
27.4172 0.542
27.4268 0.552
27.4364 0.578
27.4461 0.453
27.4557 0.510
27.4653 0.469
27.4749 0.563
27.4845 0.484
27.4941 0.427
27.5038 0.458
27.5134 0.552
27.5230 0.443
27.5326 0.490
27.5422 0.469
27.5518 0.495
27.5615 0.438
27.5711 0.505
27.5807 0.432
27.5903 0.333
27.5999 0.474
27.6095 0.453
27.6192 0.563
27.6288 0.453
27.6384 0.469
27.6480 0.516
27.6576 0.432
27.6672 0.500
27.6769 0.500
27.6865 0.427
27.6961 0.516
27.7057 0.458
27.7153 0.422
27.7249 0.339
27.7346 0.406
27.7442 0.500
27.7538 0.490
27.7634 0.542
27.7730 0.526
27.7826 0.443
27.7923 0.500
27.8019 0.583
27.8115 0.464
27.8211 0.615
27.8307 0.510
27.8403 0.557
27.8500 0.500
27.8596 0.510
27.8692 0.536
27.8788 0.526
27.8884 0.505
27.8981 0.542
27.9077 0.578
27.9173 0.438
27.9269 0.453
27.9365 0.568
27.9461 0.500
27.9558 0.339
27.9654 0.443
27.9750 0.531
27.9846 0.401
27.9942 0.505
28.0038 0.547
28.0135 0.490
28.0231 0.443
28.0327 0.417
28.0423 0.521
28.0519 0.453
28.0615 0.490
28.0712 0.500
28.0808 0.453
28.0904 0.510
28.1000 0.438
28.1096 0.479
28.1192 0.432
28.1289 0.578
28.1385 0.516
28.1481 0.505
28.1577 0.531
28.1673 0.443
28.1769 0.453
28.1866 0.484
28.1962 0.484
28.2058 0.422
28.2154 0.583
28.2250 0.542
28.2346 0.490
28.2443 0.469
28.2539 0.474
28.2635 0.505
28.2731 0.526
28.2827 0.458
28.2923 0.495
28.3020 0.526
28.3116 0.427
28.3212 0.516
28.3308 0.484
28.3404 0.510
28.3500 0.479
28.3597 0.453
28.3693 0.484
28.3789 0.552
28.3885 0.427
28.3981 0.521
28.4078 0.500
28.4174 0.552
28.4270 0.484
28.4366 0.542
28.4462 0.469
28.4558 0.484
28.4655 0.500
28.4751 0.510
28.4847 0.505
28.4943 0.542
28.5039 0.526
28.5135 0.505
28.5232 0.573
28.5328 0.609
28.5424 0.719
28.5520 0.651
28.5616 0.630
28.5712 0.625
28.5809 0.797
28.5905 0.771
28.6001 0.818
28.6097 1.052
28.6193 1.068
28.6289 0.906
28.6386 0.974
28.6482 0.849
28.6578 0.911
28.6674 0.823
28.6770 0.734
28.6866 0.703
28.6963 0.823
28.7059 0.766
28.7155 0.651
28.7251 0.630
28.7347 0.510
28.7443 0.521
28.7540 0.604
28.7636 0.573
28.7732 0.557
28.7828 0.620
28.7924 0.464
28.8020 0.453
28.8117 0.531
28.8213 0.458
28.8309 0.464
28.8405 0.484
28.8501 0.516
28.8597 0.443
28.8694 0.552
28.8790 0.474
28.8886 0.469
28.8982 0.432
28.9078 0.448
28.9175 0.516
28.9271 0.563
28.9367 0.479
28.9463 0.578
28.9559 0.479
28.9655 0.526
28.9752 0.500
28.9848 0.500
28.9944 0.505
29.0040 0.453
29.0136 0.453
29.0232 0.453
29.0329 0.474
29.0425 0.448
29.0521 0.547
29.0617 0.578
29.0713 0.521
29.0809 0.547
29.0906 0.495
29.1002 0.458
29.1098 0.490
29.1194 0.479
29.1290 0.427
29.1386 0.599
29.1483 0.495
29.1579 0.526
29.1675 0.625
29.1771 0.557
29.1867 0.583
29.1963 0.531
29.2060 0.521
29.2156 0.594
29.2252 0.547
29.2348 0.719
29.2444 0.672
29.2540 0.729
29.2637 0.703
29.2733 0.771
29.2829 0.849
29.2925 0.802
29.3021 0.917
29.3117 0.964
29.3214 1.109
29.3310 1.089
29.3406 1.401
29.3502 1.479
29.3598 1.557
29.3694 1.698
29.3791 1.828
29.3887 1.708
29.3983 1.651
29.4079 1.766
29.4175 1.646
29.4272 1.688
29.4368 1.458
29.4464 1.453
29.4560 1.432
29.4656 1.276
29.4752 1.172
29.4849 0.995
29.4945 1.000
29.5041 0.943
29.5137 0.865
29.5233 0.823
29.5329 0.693
29.5426 0.698
29.5522 0.776
29.5618 0.630
29.5714 0.609
29.5810 0.604
29.5906 0.589
29.6003 0.552
29.6099 0.510
29.6195 0.594
29.6291 0.547
29.6387 0.526
29.6483 0.484
29.6580 0.490
29.6676 0.500
29.6772 0.469
29.6868 0.458
29.6964 0.536
29.7060 0.536
29.7157 0.516
29.7253 0.594
29.7349 0.542
29.7445 0.391
29.7541 0.469
29.7637 0.453
29.7734 0.490
29.7830 0.474
29.7926 0.495
29.8022 0.453
29.8118 0.531
29.8214 0.396
29.8311 0.500
29.8407 0.464
29.8503 0.604
29.8599 0.479
29.8695 0.484
29.8791 0.464
29.8888 0.578
29.8984 0.505
29.9080 0.510
29.9176 0.495
29.9272 0.474
29.9369 0.500
29.9465 0.458
29.9561 0.516
29.9657 0.422
29.9753 0.521
29.9849 0.464
29.9946 0.510
30.0042 0.453
30.0138 0.432
30.0234 0.479
30.0330 0.427
30.0426 0.443
30.0523 0.427
30.0619 0.422
30.0715 0.427
30.0811 0.500
30.0907 0.443
30.1003 0.443
30.1100 0.464
30.1196 0.417
30.1292 0.510
30.1388 0.484
30.1484 0.464
30.1580 0.380
30.1677 0.479
30.1773 0.474
30.1869 0.484
30.1965 0.438
30.2061 0.464
30.2157 0.432
30.2254 0.448
30.2350 0.333
30.2446 0.464
30.2542 0.432
30.2638 0.391
30.2734 0.417
30.2831 0.458
30.2927 0.474
30.3023 0.417
30.3119 0.443
30.3215 0.380
30.3311 0.438
30.3408 0.438
30.3504 0.438
30.3600 0.406
30.3696 0.438
30.3792 0.500
30.3889 0.417
30.3985 0.391
30.4081 0.484
30.4177 0.500
30.4273 0.443
30.4369 0.448
30.4466 0.422
30.4562 0.396
30.4658 0.453
30.4754 0.510
30.4850 0.552
30.4946 0.448
30.5043 0.448
30.5139 0.490
30.5235 0.469
30.5331 0.432
30.5427 0.438
30.5523 0.422
30.5620 0.516
30.5716 0.422
30.5812 0.422
30.5908 0.531
30.6004 0.427
30.6100 0.443
30.6197 0.469
30.6293 0.464
30.6389 0.500
30.6485 0.568
30.6581 0.359
30.6677 0.443
30.6774 0.443
30.6870 0.484
30.6966 0.411
30.7062 0.427
30.7158 0.432
30.7254 0.427
30.7351 0.438
30.7447 0.536
30.7543 0.474
30.7639 0.583
30.7735 0.521
30.7831 0.432
30.7928 0.474
30.8024 0.458
30.8120 0.479
30.8216 0.516
30.8312 0.443
30.8408 0.458
30.8505 0.448
30.8601 0.484
30.8697 0.406
30.8793 0.469
30.8889 0.479
30.8986 0.422
30.9082 0.458
30.9178 0.500
30.9274 0.510
30.9370 0.521
30.9466 0.438
30.9563 0.568
30.9659 0.516
30.9755 0.391
30.9851 0.411
30.9947 0.432
31.0043 0.563
31.0140 0.479
31.0236 0.438
31.0332 0.510
31.0428 0.479
31.0524 0.516
31.0620 0.510
31.0717 0.526
31.0813 0.417
31.0909 0.604
31.1005 0.557
31.1101 0.448
31.1197 0.469
31.1294 0.474
31.1390 0.479
31.1486 0.411
31.1582 0.474
31.1678 0.479
31.1774 0.411
31.1871 0.432
31.1967 0.411
31.2063 0.469
31.2159 0.505
31.2255 0.432
31.2351 0.380
31.2448 0.432
31.2544 0.469
31.2640 0.484
31.2736 0.458
31.2832 0.438
31.2928 0.453
31.3025 0.432
31.3121 0.375
31.3217 0.422
31.3313 0.448
31.3409 0.380
31.3505 0.443
31.3602 0.391
31.3698 0.500
31.3794 0.531
31.3890 0.427
31.3986 0.370
31.4083 0.458
31.4179 0.521
31.4275 0.422
31.4371 0.438
31.4467 0.578
31.4563 0.484
31.4660 0.401
31.4756 0.484
31.4852 0.484
31.4948 0.531
31.5044 0.432
31.5140 0.474
31.5237 0.438
31.5333 0.521
31.5429 0.427
31.5525 0.417
31.5621 0.479
31.5717 0.422
31.5814 0.432
31.5910 0.453
31.6006 0.448
31.6102 0.432
31.6198 0.365
31.6294 0.385
31.6391 0.391
31.6487 0.385
31.6583 0.453
31.6679 0.339
31.6775 0.359
31.6871 0.349
31.6968 0.385
31.7064 0.411
31.7160 0.349
31.7256 0.438
31.7352 0.464
31.7448 0.464
31.7545 0.432
31.7641 0.411
31.7737 0.521
31.7833 0.516
31.7929 0.380
31.8025 0.422
31.8122 0.396
31.8218 0.479
31.8314 0.380
31.8410 0.318
31.8506 0.422
31.8602 0.474
31.8699 0.385
31.8795 0.510
31.8891 0.458
31.8987 0.495
31.9083 0.500
31.9180 0.547
31.9276 0.443
31.9372 0.443
31.9468 0.510
31.9564 0.438
31.9660 0.469
31.9757 0.432
31.9853 0.484
31.9949 0.490
32.0045 0.521
32.0141 0.536
32.0237 0.589
32.0334 0.458
32.0430 0.589
32.0526 0.536
32.0622 0.609
32.0718 0.651
32.0814 0.609
32.0911 0.568
32.1007 0.589
32.1103 0.615
32.1199 0.729
32.1295 0.594
32.1391 0.573
32.1488 0.682
32.1584 0.719
32.1680 0.750
32.1776 0.651
32.1872 0.844
32.1968 0.714
32.2065 0.766
32.2161 0.792
32.2257 0.813
32.2353 0.635
32.2449 0.755
32.2545 0.656
32.2642 0.578
32.2738 0.604
32.2834 0.604
32.2930 0.646
32.3026 0.708
32.3122 0.568
32.3219 0.609
32.3315 0.573
32.3411 0.677
32.3507 0.594
32.3603 0.573
32.3699 0.557
32.3796 0.453
32.3892 0.557
32.3988 0.484
32.4084 0.464
32.4180 0.505
32.4277 0.443
32.4373 0.391
32.4469 0.417
32.4565 0.505
32.4661 0.432
32.4757 0.464
32.4854 0.453
32.4950 0.443
32.5046 0.458
32.5142 0.438
32.5238 0.438
32.5334 0.432
32.5431 0.380
32.5527 0.417
32.5623 0.417
32.5719 0.380
32.5815 0.417
32.5911 0.438
32.6008 0.370
32.6104 0.427
32.6200 0.359
32.6296 0.328
32.6392 0.385
32.6488 0.396
32.6585 0.406
32.6681 0.474
32.6777 0.380
32.6873 0.557
32.6969 0.375
32.7065 0.443
32.7162 0.448
32.7258 0.391
32.7354 0.490
32.7450 0.396
32.7546 0.370
32.7642 0.453
32.7739 0.458
32.7835 0.375
32.7931 0.599
32.8027 0.385
32.8123 0.318
32.8219 0.448
32.8316 0.333
32.8412 0.349
32.8508 0.521
32.8604 0.432
32.8700 0.380
32.8797 0.344
32.8893 0.453
32.8989 0.484
32.9085 0.396
32.9181 0.313
32.9277 0.391
32.9374 0.302
32.9470 0.411
32.9566 0.500
32.9662 0.427
32.9758 0.380
32.9854 0.380
32.9951 0.479
33.0047 0.443
33.0143 0.458
33.0239 0.443
33.0335 0.406
33.0431 0.438
33.0528 0.453
33.0624 0.411
33.0720 0.427
33.0816 0.385
33.0912 0.484
33.1008 0.391
33.1105 0.438
33.1201 0.396
33.1297 0.375
33.1393 0.370
33.1489 0.396
33.1585 0.464
33.1682 0.443
33.1778 0.443
33.1874 0.547
33.1970 0.464
33.2066 0.417
33.2162 0.385
33.2259 0.464
33.2355 0.396
33.2451 0.417
33.2547 0.505
33.2643 0.411
33.2739 0.474
33.2836 0.464
33.2932 0.380
33.3028 0.385
33.3124 0.458
33.3220 0.510
33.3316 0.443
33.3413 0.453
33.3509 0.375
33.3605 0.474
33.3701 0.417
33.3797 0.453
33.3894 0.396
33.3990 0.495
33.4086 0.339
33.4182 0.365
33.4278 0.458
33.4374 0.417
33.4471 0.380
33.4567 0.328
33.4663 0.344
33.4759 0.422
33.4855 0.365
33.4951 0.500
33.5048 0.432
33.5144 0.453
33.5240 0.458
33.5336 0.422
33.5432 0.401
33.5528 0.469
33.5625 0.375
33.5721 0.453
33.5817 0.448
33.5913 0.349
33.6009 0.333
33.6105 0.500
33.6202 0.417
33.6298 0.411
33.6394 0.495
33.6490 0.318
33.6586 0.385
33.6682 0.422
33.6779 0.417
33.6875 0.474
33.6971 0.453
33.7067 0.344
33.7163 0.417
33.7259 0.417
33.7356 0.479
33.7452 0.417
33.7548 0.422
33.7644 0.448
33.7740 0.406
33.7836 0.464
33.7933 0.417
33.8029 0.458
33.8125 0.453
33.8221 0.427
33.8317 0.406
33.8413 0.432
33.8510 0.484
33.8606 0.531
33.8702 0.422
33.8798 0.484
33.8894 0.438
33.8991 0.469
33.9087 0.365
33.9183 0.349
33.9279 0.495
33.9375 0.443
33.9471 0.500
33.9568 0.479
33.9664 0.479
33.9760 0.380
33.9856 0.396
33.9952 0.536
34.0048 0.458
34.0145 0.495
34.0241 0.536
34.0337 0.479
34.0433 0.427
34.0529 0.490
34.0625 0.469
34.0722 0.464
34.0818 0.458
34.0914 0.495
34.1010 0.458
34.1106 0.417
34.1202 0.547
34.1299 0.448
34.1395 0.365
34.1491 0.380
34.1587 0.474
34.1683 0.490
34.1779 0.578
34.1876 0.464
34.1972 0.385
34.2068 0.458
34.2164 0.490
34.2260 0.422
34.2356 0.453
34.2453 0.464
34.2549 0.536
34.2645 0.432
34.2741 0.479
34.2837 0.542
34.2933 0.458
34.3030 0.484
34.3126 0.464
34.3222 0.375
34.3318 0.563
34.3414 0.526
34.3510 0.474
34.3607 0.469
34.3703 0.521
34.3799 0.401
34.3895 0.484
34.3991 0.438
34.4088 0.500
34.4184 0.432
34.4280 0.380
34.4376 0.516
34.4472 0.453
34.4568 0.536
34.4665 0.479
34.4761 0.385
34.4857 0.443
34.4953 0.438
34.5049 0.411
34.5145 0.479
34.5242 0.443
34.5338 0.427
34.5434 0.375
34.5530 0.438
34.5626 0.474
34.5722 0.505
34.5819 0.505
34.5915 0.505
34.6011 0.479
34.6107 0.484
34.6203 0.438
34.6299 0.589
34.6396 0.479
34.6492 0.453
34.6588 0.406
34.6684 0.391
34.6780 0.438
34.6876 0.469
34.6973 0.396
34.7069 0.479
34.7165 0.370
34.7261 0.422
34.7357 0.427
34.7453 0.411
34.7550 0.516
34.7646 0.417
34.7742 0.328
34.7838 0.406
34.7934 0.490
34.8030 0.438
34.8127 0.391
34.8223 0.495
34.8319 0.396
34.8415 0.432
34.8511 0.469
34.8607 0.490
34.8704 0.484
34.8800 0.443
34.8896 0.557
34.8992 0.385
34.9088 0.500
34.9185 0.401
34.9281 0.406
34.9377 0.406
34.9473 0.526
34.9569 0.453
34.9665 0.453
34.9762 0.422
34.9858 0.469
34.9954 0.490
35.0050 0.453
35.0146 0.563
35.0242 0.458
35.0339 0.484
35.0435 0.469
35.0531 0.385
35.0627 0.484
35.0723 0.474
35.0819 0.526
35.0916 0.458
35.1012 0.417
35.1108 0.401
35.1204 0.448
35.1300 0.359
35.1396 0.427
35.1493 0.448
35.1589 0.406
35.1685 0.401
35.1781 0.505
35.1877 0.495
35.1973 0.443
35.2070 0.500
35.2166 0.479
35.2262 0.422
35.2358 0.469
35.2454 0.458
35.2550 0.406
35.2647 0.464
35.2743 0.479
35.2839 0.432
35.2935 0.474
35.3031 0.443
35.3127 0.510
35.3224 0.536
35.3320 0.505
35.3416 0.484
35.3512 0.521
35.3608 0.375
35.3705 0.385
35.3801 0.484
35.3897 0.516
35.3993 0.422
35.4089 0.474
35.4185 0.380
35.4282 0.422
35.4378 0.458
35.4474 0.542
35.4570 0.417
35.4666 0.521
35.4762 0.474
35.4859 0.474
35.4955 0.510
35.5051 0.495
35.5147 0.411
35.5243 0.422
35.5339 0.411
35.5436 0.453
35.5532 0.536
35.5628 0.583
35.5724 0.484
35.5820 0.484
35.5916 0.536
35.6013 0.464
35.6109 0.495
35.6205 0.552
35.6301 0.505
35.6397 0.583
35.6493 0.547
35.6590 0.589
35.6686 0.510
35.6782 0.510
35.6878 0.641
35.6974 0.589
35.7070 0.583
35.7167 0.479
35.7263 0.411
35.7359 0.516
35.7455 0.536
35.7551 0.557
35.7647 0.536
35.7744 0.542
35.7840 0.594
35.7936 0.479
35.8032 0.505
35.8128 0.521
35.8224 0.474
35.8321 0.510
35.8417 0.542
35.8513 0.594
35.8609 0.521
35.8705 0.484
35.8802 0.609
35.8898 0.547
35.8994 0.599
35.9090 0.500
35.9186 0.469
35.9282 0.594
35.9379 0.641
35.9475 0.615
35.9571 0.615
35.9667 0.740
35.9763 0.698
35.9859 0.677
35.9956 0.609
36.0052 0.615
36.0148 0.615
36.0244 0.750
36.0340 0.583
36.0436 0.693
36.0533 0.708
36.0629 0.688
36.0725 0.646
36.0821 0.630
36.0917 0.760
36.1013 0.641
36.1110 0.542
36.1206 0.635
36.1302 0.693
36.1398 0.698
36.1494 0.516
36.1590 0.646
36.1687 0.651
36.1783 0.589
36.1879 0.714
36.1975 0.594
36.2071 0.641
36.2167 0.677
36.2264 0.594
36.2360 0.703
36.2456 0.578
36.2552 0.661
36.2648 0.703
36.2744 0.651
36.2841 0.776
36.2937 0.568
36.3033 0.677
36.3129 0.693
36.3225 0.656
36.3321 0.771
36.3418 0.620
36.3514 0.688
36.3610 0.818
36.3706 0.797
36.3802 0.766
36.3899 0.781
36.3995 0.792
36.4091 0.828
36.4187 0.766
36.4283 0.906
36.4379 0.896
36.4476 0.984
36.4572 0.792
36.4668 0.813
36.4764 0.823
36.4860 0.927
36.4956 0.943
36.5053 0.953
36.5149 0.911
36.5245 1.042
36.5341 1.073
36.5437 1.057
36.5533 1.005
36.5630 1.104
36.5726 1.161
36.5822 1.005
36.5918 1.198
36.6014 1.073
36.6110 1.099
36.6207 1.271
36.6303 1.094
36.6399 1.146
36.6495 1.229
36.6591 1.359
36.6687 1.396
36.6784 1.401
36.6880 1.391
36.6976 1.323
36.7072 1.318
36.7168 1.427
36.7264 1.464
36.7361 1.516
36.7457 1.604
36.7553 1.505
36.7649 1.427
36.7745 1.885
36.7841 1.719
36.7938 1.563
36.8034 1.677
36.8130 1.698
36.8226 1.932
36.8322 1.719
36.8418 1.661
36.8515 1.635
36.8611 1.792
36.8707 1.833
36.8803 1.760
36.8899 1.776
36.8996 1.880
36.9092 1.724
36.9188 1.703
36.9284 1.703
36.9380 1.781
36.9476 1.724
36.9573 1.823
36.9669 1.781
36.9765 1.792
36.9861 1.615
36.9957 1.682
37.0053 1.604
37.0150 1.677
37.0246 1.641
37.0342 1.672
37.0438 1.484
37.0534 1.635
37.0630 1.510
37.0727 1.599
37.0823 1.510
37.0919 1.568
37.1015 1.422
37.1111 1.396
37.1207 1.375
37.1304 1.406
37.1400 1.344
37.1496 1.318
37.1592 1.302
37.1688 1.245
37.1784 1.266
37.1881 1.344
37.1977 1.286
37.2073 1.208
37.2169 1.318
37.2265 1.417
37.2361 1.328
37.2458 1.234
37.2554 1.286
37.2650 1.219
37.2746 1.469
37.2842 1.526
37.2938 1.411
37.3035 1.443
37.3131 1.495
37.3227 1.568
37.3323 1.370
37.3419 1.474
37.3516 1.453
37.3612 1.401
37.3708 1.292
37.3804 1.484
37.3900 1.292
37.3996 1.260
37.4093 1.234
37.4189 1.208
37.4285 1.250
37.4381 1.281
37.4477 1.057
37.4573 1.021
37.4670 1.083
37.4766 0.922
37.4862 0.880
37.4958 0.885
37.5054 0.781
37.5150 0.964
37.5247 0.797
37.5343 0.688
37.5439 0.635
37.5535 0.724
37.5631 0.656
37.5727 0.719
37.5824 0.635
37.5920 0.630
37.6016 0.594
37.6112 0.500
37.6208 0.521
37.6304 0.583
37.6401 0.531
37.6497 0.516
37.6593 0.542
37.6689 0.500
37.6785 0.552
37.6881 0.516
37.6978 0.453
37.7074 0.526
37.7170 0.521
37.7266 0.469
37.7362 0.542
37.7458 0.563
37.7555 0.510
37.7651 0.401
37.7747 0.427
37.7843 0.615
37.7939 0.547
37.8035 0.464
37.8132 0.479
37.8228 0.526
37.8324 0.469
37.8420 0.484
37.8516 0.563
37.8613 0.427
37.8709 0.495
37.8805 0.484
37.8901 0.474
37.8997 0.417
37.9093 0.396
37.9190 0.474
37.9286 0.448
37.9382 0.448
37.9478 0.573
37.9574 0.385
37.9670 0.505
37.9767 0.521
37.9863 0.349
37.9959 0.427
38.0055 0.422
38.0151 0.432
38.0247 0.427
38.0344 0.344
38.0440 0.365
38.0536 0.443
38.0632 0.375
38.0728 0.458
38.0824 0.354
38.0921 0.411
38.1017 0.464
38.1113 0.396
38.1209 0.365
38.1305 0.411
38.1401 0.484
38.1498 0.443
38.1594 0.370
38.1690 0.510
38.1786 0.401
38.1882 0.401
38.1978 0.443
38.2075 0.417
38.2171 0.495
38.2267 0.417
38.2363 0.438
38.2459 0.401
38.2555 0.297
38.2652 0.443
38.2748 0.417
38.2844 0.490
38.2940 0.438
38.3036 0.354
38.3132 0.359
38.3229 0.417
38.3325 0.438
38.3421 0.469
38.3517 0.385
38.3613 0.385
38.3710 0.427
38.3806 0.453
38.3902 0.396
38.3998 0.396
38.4094 0.448
38.4190 0.422
38.4287 0.401
38.4383 0.370
38.4479 0.380
38.4575 0.422
38.4671 0.339
38.4767 0.380
38.4864 0.422
38.4960 0.432
38.5056 0.490
38.5152 0.448
38.5248 0.380
38.5344 0.385
38.5441 0.391
38.5537 0.359
38.5633 0.432
38.5729 0.333
38.5825 0.458
38.5921 0.401
38.6018 0.500
38.6114 0.438
38.6210 0.391
38.6306 0.401
38.6402 0.401
38.6498 0.417
38.6595 0.380
38.6691 0.396
38.6787 0.406
38.6883 0.365
38.6979 0.427
38.7075 0.396
38.7172 0.328
38.7268 0.396
38.7364 0.422
38.7460 0.479
38.7556 0.458
38.7652 0.495
38.7749 0.411
38.7845 0.427
38.7941 0.443
38.8037 0.417
38.8133 0.417
38.8229 0.432
38.8326 0.375
38.8422 0.365
38.8518 0.469
38.8614 0.443
38.8710 0.490
38.8807 0.344
38.8903 0.333
38.8999 0.359
38.9095 0.385
38.9191 0.500
38.9287 0.375
38.9384 0.490
38.9480 0.365
38.9576 0.406
38.9672 0.427
38.9768 0.448
38.9864 0.401
38.9961 0.495
39.0057 0.448
39.0153 0.464
39.0249 0.417
39.0345 0.359
39.0441 0.505
39.0538 0.411
39.0634 0.417
39.0730 0.396
39.0826 0.464
39.0922 0.349
39.1018 0.469
39.1115 0.328
39.1211 0.417
39.1307 0.396
39.1403 0.432
39.1499 0.370
39.1595 0.422
39.1692 0.432
39.1788 0.391
39.1884 0.401
39.1980 0.422
39.2076 0.422
39.2172 0.391
39.2269 0.458
39.2365 0.385
39.2461 0.453
39.2557 0.422
39.2653 0.385
39.2749 0.375
39.2846 0.536
39.2942 0.474
39.3038 0.448
39.3134 0.510
39.3230 0.516
39.3326 0.589
39.3423 0.474
39.3519 0.651
39.3615 0.557
39.3711 0.625
39.3807 0.635
39.3904 0.615
39.4000 0.641
39.4096 0.661
39.4192 0.630
39.4288 0.609
39.4384 0.698
39.4481 0.693
39.4577 0.568
39.4673 0.641
39.4769 0.583
39.4865 0.536
39.4961 0.594
39.5058 0.583
39.5154 0.547
39.5250 0.490
39.5346 0.599
39.5442 0.505
39.5538 0.458
39.5635 0.620
39.5731 0.411
39.5827 0.438
39.5923 0.536
39.6019 0.521
39.6115 0.536
39.6212 0.510
39.6308 0.521
39.6404 0.510
39.6500 0.516
39.6596 0.521
39.6692 0.510
39.6789 0.469
39.6885 0.443
39.6981 0.411
39.7077 0.469
39.7173 0.385
39.7269 0.495
39.7366 0.484
39.7462 0.427
39.7558 0.458
39.7654 0.458
39.7750 0.484
39.7846 0.474
39.7943 0.458
39.8039 0.427
39.8135 0.438
39.8231 0.391
39.8327 0.469
39.8424 0.396
39.8520 0.354
39.8616 0.401
39.8712 0.458
39.8808 0.464
39.8904 0.443
39.9001 0.458
39.9097 0.469
39.9193 0.375
39.9289 0.510
39.9385 0.479
39.9481 0.396
39.9578 0.484
39.9674 0.453
39.9770 0.380
39.9866 0.406
39.9962 0.417
40.0058 0.432
40.0155 0.484
40.0251 0.542
40.0347 0.396
40.0443 0.417
40.0539 0.354
40.0635 0.406
40.0732 0.365
40.0828 0.406
40.0924 0.422
40.1020 0.453
40.1116 0.510
40.1212 0.380
40.1309 0.521
40.1405 0.453
40.1501 0.443
40.1597 0.484
40.1693 0.370
40.1789 0.411
40.1886 0.479
40.1982 0.464
40.2078 0.391
40.2174 0.448
40.2270 0.443
40.2366 0.443
40.2463 0.484
40.2559 0.484
40.2655 0.474
40.2751 0.521
40.2847 0.422
40.2943 0.495
40.3040 0.385
40.3136 0.427
40.3232 0.505
40.3328 0.438
40.3424 0.391
40.3521 0.516
40.3617 0.448
40.3713 0.536
40.3809 0.464
40.3905 0.469
40.4001 0.396
40.4098 0.542
40.4194 0.526
40.4290 0.479
40.4386 0.505
40.4482 0.417
40.4578 0.411
40.4675 0.474
40.4771 0.479
40.4867 0.453
40.4963 0.422
40.5059 0.417
40.5155 0.526
40.5252 0.474
40.5348 0.536
40.5444 0.490
40.5540 0.547
40.5636 0.500
40.5732 0.417
40.5829 0.490
40.5925 0.521
40.6021 0.516
40.6117 0.411
40.6213 0.547
40.6309 0.500
40.6406 0.432
40.6502 0.458
40.6598 0.547
40.6694 0.464
40.6790 0.484
40.6886 0.521
40.6983 0.474
40.7079 0.448
40.7175 0.464
40.7271 0.443
40.7367 0.531
40.7463 0.438
40.7560 0.391
40.7656 0.484
40.7752 0.526
40.7848 0.500
40.7944 0.547
40.8040 0.479
40.8137 0.448
40.8233 0.526
40.8329 0.479
40.8425 0.536
40.8521 0.542
40.8618 0.552
40.8714 0.583
40.8810 0.594
40.8906 0.417
40.9002 0.568
40.9098 0.531
40.9195 0.516
40.9291 0.490
40.9387 0.490
40.9483 0.552
40.9579 0.526
40.9675 0.542
40.9772 0.547
40.9868 0.573
40.9964 0.552
41.0060 0.661
41.0156 0.589
41.0252 0.698
41.0349 0.589
41.0445 0.563
41.0541 0.609
41.0637 0.599
41.0733 0.583
41.0829 0.500
41.0926 0.630
41.1022 0.594
41.1118 0.464
41.1214 0.625
41.1310 0.568
41.1406 0.516
41.1503 0.635
41.1599 0.557
41.1695 0.688
41.1791 0.641
41.1887 0.641
41.1983 0.552
41.2080 0.651
41.2176 0.625
41.2272 0.625
41.2368 0.641
41.2464 0.646
41.2560 0.641
41.2657 0.714
41.2753 0.672
41.2849 0.573
41.2945 0.672
41.3041 0.708
41.3137 0.781
41.3234 0.552
41.3330 0.656
41.3426 0.698
41.3522 0.766
41.3618 0.750
41.3715 0.755
41.3811 0.792
41.3907 0.677
41.4003 0.745
41.4099 0.729
41.4195 0.906
41.4292 0.708
41.4388 0.688
41.4484 0.802
41.4580 0.750
41.4676 0.708
41.4772 0.885
41.4869 0.750
41.4965 0.750
41.5061 0.828
41.5157 0.885
41.5253 0.786
41.5349 0.880
41.5446 0.948
41.5542 0.880
41.5638 0.802
41.5734 0.891
41.5830 0.854
41.5926 0.896
41.6023 0.839
41.6119 0.906
41.6215 1.021
41.6311 0.891
41.6407 0.943
41.6503 1.021
41.6600 1.010
41.6696 0.911
41.6792 1.000
41.6888 0.922
41.6984 1.073
41.7080 0.891
41.7177 1.135
41.7273 0.969
41.7369 1.104
41.7465 1.104
41.7561 1.026
41.7657 1.036
41.7754 1.073
41.7850 1.151
41.7946 1.057
41.8042 1.094
41.8138 1.266
41.8234 1.125
41.8331 1.156
41.8427 1.193
41.8523 1.109
41.8619 1.219
41.8715 1.188
41.8812 1.260
41.8908 1.276
41.9004 1.198
41.9100 1.302
41.9196 1.292
41.9292 1.292
41.9389 1.234
41.9485 1.370
41.9581 1.271
41.9677 1.375
41.9773 1.406
41.9869 1.510
41.9966 1.464
42.0062 1.620
42.0158 1.500
42.0254 1.453
42.0350 1.563
42.0446 1.615
42.0543 1.682
42.0639 1.589
42.0735 1.734
42.0831 1.802
42.0927 1.870
42.1023 1.823
42.1120 1.885
42.1216 1.906
42.1312 1.880
42.1408 2.141
42.1504 2.021
42.1600 1.984
42.1697 2.292
42.1793 2.167
42.1889 2.385
42.1985 2.578
42.2081 2.458
42.2177 2.583
42.2274 2.708
42.2370 2.609
42.2466 2.719
42.2562 2.724
42.2658 2.724
42.2754 3.031
42.2851 2.901
42.2947 3.031
42.3043 3.427
42.3139 3.156
42.3235 3.422
42.3332 3.672
42.3428 3.609
42.3524 4.016
42.3620 3.776
42.3716 3.948
42.3812 4.385
42.3909 4.474
42.4005 4.375
42.4101 4.609
42.4197 4.891
42.4293 5.005
42.4389 5.188
42.4486 5.526
42.4582 5.568
42.4678 5.760
42.4774 6.109
42.4870 6.589
42.4966 6.474
42.5063 6.745
42.5159 6.771
42.5255 7.125
42.5351 7.568
42.5447 7.500
42.5543 8.297
42.5640 8.292
42.5736 8.672
42.5832 8.656
42.5928 8.771
42.6024 9.547
42.6120 9.661
42.6217 10.344
42.6313 10.161
42.6409 10.911
42.6505 11.589
42.6601 11.766
42.6697 11.568
42.6794 12.380
42.6890 12.052
42.6986 12.839
42.7082 12.797
42.7178 13.411
42.7274 13.750
42.7371 14.411
42.7467 14.354
42.7563 14.542
42.7659 14.708
42.7755 14.953
42.7851 15.635
42.7948 15.901
42.8044 15.708
42.8140 16.099
42.8236 16.318
42.8332 16.786
42.8429 16.620
42.8525 16.839
42.8621 16.714
42.8717 16.672
42.8813 16.682
42.8909 16.948
42.9006 17.099
42.9102 16.547
42.9198 16.422
42.9294 16.818
42.9390 16.427
42.9486 16.292
42.9583 16.307
42.9679 15.516
42.9775 15.484
42.9871 15.307
42.9967 15.094
43.0063 15.255
43.0160 15.052
43.0256 14.344
43.0352 13.755
43.0448 13.620
43.0544 13.057
43.0640 13.344
43.0737 12.677
43.0833 12.646
43.0929 11.734
43.1025 11.771
43.1121 11.604
43.1217 11.490
43.1314 10.734
43.1410 10.922
43.1506 10.161
43.1602 10.042
43.1698 9.448
43.1794 9.047
43.1891 8.646
43.1987 8.755
43.2083 8.417
43.2179 7.964
43.2275 7.615
43.2371 7.490
43.2468 7.453
43.2564 6.604
43.2660 6.333
43.2756 6.125
43.2852 6.042
43.2948 5.656
43.3045 5.771
43.3141 5.568
43.3237 5.120
43.3333 5.078
43.3429 4.813
43.3526 4.411
43.3622 4.323
43.3718 4.193
43.3814 4.156
43.3910 4.198
43.4006 3.708
43.4103 3.661
43.4199 3.443
43.4295 3.620
43.4391 3.370
43.4487 3.286
43.4583 3.161
43.4680 3.214
43.4776 2.792
43.4872 2.839
43.4968 2.760
43.5064 2.516
43.5160 2.604
43.5257 2.438
43.5353 2.391
43.5449 2.396
43.5545 2.276
43.5641 2.375
43.5737 2.021
43.5834 1.979
43.5930 2.089
43.6026 2.000
43.6122 1.995
43.6218 1.792
43.6314 1.896
43.6411 1.724
43.6507 1.776
43.6603 1.677
43.6699 1.672
43.6795 1.677
43.6891 1.682
43.6988 1.682
43.7084 1.495
43.7180 1.448
43.7276 1.526
43.7372 1.578
43.7468 1.427
43.7565 1.438
43.7661 1.286
43.7757 1.359
43.7853 1.516
43.7949 1.255
43.8045 1.266
43.8142 1.229
43.8238 1.109
43.8334 1.073
43.8430 1.198
43.8526 1.214
43.8623 1.031
43.8719 1.109
43.8815 1.224
43.8911 1.188
43.9007 1.083
43.9103 1.083
43.9200 1.068
43.9296 1.005
43.9392 0.953
43.9488 1.005
43.9584 0.953
43.9680 1.135
43.9777 1.000
43.9873 0.964
43.9969 0.990
44.0065 0.990
44.0161 0.828
44.0257 0.844
44.0354 0.750
44.0450 0.927
44.0546 0.880
44.0642 1.005
44.0738 0.932
44.0834 0.885
44.0931 0.938
44.1027 0.906
44.1123 0.932
44.1219 0.786
44.1315 0.766
44.1411 0.844
44.1508 0.776
44.1604 0.839
44.1700 0.693
44.1796 0.771
44.1892 0.828
44.1988 0.870
44.2085 0.682
44.2181 0.698
44.2277 0.807
44.2373 0.651
44.2469 0.693
44.2565 0.760
44.2662 0.776
44.2758 0.724
44.2854 0.656
44.2950 0.615
44.3046 0.594
44.3142 0.750
44.3239 0.760
44.3335 0.708
44.3431 0.641
44.3527 0.714
44.3623 0.583
44.3720 0.708
44.3816 0.651
44.3912 0.609
44.4008 0.651
44.4104 0.682
44.4200 0.698
44.4297 0.740
44.4393 0.573
44.4489 0.714
44.4585 0.625
44.4681 0.635
44.4777 0.693
44.4874 0.667
44.4970 0.656
44.5066 0.672
44.5162 0.620
44.5258 0.630
44.5354 0.594
44.5451 0.625
44.5547 0.568
44.5643 0.578
44.5739 0.573
44.5835 0.656
44.5931 0.583
44.6028 0.609
44.6124 0.651
44.6220 0.536
44.6316 0.542
44.6412 0.589
44.6508 0.490
44.6605 0.635
44.6701 0.568
44.6797 0.620
44.6893 0.500
44.6989 0.568
44.7085 0.589
44.7182 0.625
44.7278 0.589
44.7374 0.573
44.7470 0.609
44.7566 0.573
44.7662 0.609
44.7759 0.578
44.7855 0.552
44.7951 0.594
44.8047 0.521
44.8143 0.557
44.8240 0.505
44.8336 0.479
44.8432 0.542
44.8528 0.536
44.8624 0.552
44.8720 0.484
44.8817 0.505
44.8913 0.516
44.9009 0.531
44.9105 0.547
44.9201 0.422
44.9297 0.354
44.9394 0.583
44.9490 0.500
44.9586 0.484
44.9682 0.578
44.9778 0.479
44.9874 0.516
44.9971 0.484
45.0067 0.495
45.0163 0.536
45.0259 0.542
45.0355 0.458
45.0451 0.495
45.0548 0.547
45.0644 0.547
45.0740 0.438
45.0836 0.505
45.0932 0.448
45.1028 0.411
45.1125 0.375
45.1221 0.380
45.1317 0.370
45.1413 0.453
45.1509 0.464
45.1605 0.479
45.1702 0.458
45.1798 0.542
45.1894 0.422
45.1990 0.505
45.2086 0.526
45.2182 0.516
45.2279 0.432
45.2375 0.391
45.2471 0.432
45.2567 0.458
45.2663 0.464
45.2759 0.516
45.2856 0.417
45.2952 0.453
45.3048 0.495
45.3144 0.365
45.3240 0.495
45.3337 0.422
45.3433 0.453
45.3529 0.432
45.3625 0.359
45.3721 0.396
45.3817 0.438
45.3914 0.432
45.4010 0.427
45.4106 0.484
45.4202 0.380
45.4298 0.479
45.4394 0.411
45.4491 0.453
45.4587 0.432
45.4683 0.432
45.4779 0.464
45.4875 0.406
45.4971 0.438
45.5068 0.438
45.5164 0.401
45.5260 0.365
45.5356 0.365
45.5452 0.448
45.5548 0.422
45.5645 0.505
45.5741 0.422
45.5837 0.432
45.5933 0.406
45.6029 0.464
45.6125 0.469
45.6222 0.422
45.6318 0.464
45.6414 0.422
45.6510 0.375
45.6606 0.401
45.6702 0.385
45.6799 0.406
45.6895 0.318
45.6991 0.453
45.7087 0.411
45.7183 0.432
45.7279 0.490
45.7376 0.359
45.7472 0.427
45.7568 0.391
45.7664 0.490
45.7760 0.448
45.7856 0.417
45.7953 0.438
45.8049 0.370
45.8145 0.438
45.8241 0.417
45.8337 0.385
45.8434 0.453
45.8530 0.458
45.8626 0.521
45.8722 0.359
45.8818 0.432
45.8914 0.380
45.9011 0.469
45.9107 0.453
45.9203 0.417
45.9299 0.406
45.9395 0.385
45.9491 0.375
45.9588 0.359
45.9684 0.375
45.9780 0.328
45.9876 0.380
45.9972 0.391
46.0068 0.406
46.0165 0.349
46.0261 0.339
46.0357 0.391
46.0453 0.370
46.0549 0.359
46.0645 0.323
46.0742 0.411
46.0838 0.422
46.0934 0.370
46.1030 0.438
46.1126 0.396
46.1222 0.427
46.1319 0.391
46.1415 0.391
46.1511 0.464
46.1607 0.458
46.1703 0.375
46.1799 0.438
46.1896 0.339
46.1992 0.359
46.2088 0.380
46.2184 0.297
46.2280 0.318
46.2376 0.359
46.2473 0.453
46.2569 0.401
46.2665 0.385
46.2761 0.365
46.2857 0.375
46.2953 0.375
46.3050 0.464
46.3146 0.339
46.3242 0.427
46.3338 0.359
46.3434 0.401
46.3531 0.333
46.3627 0.370
46.3723 0.391
46.3819 0.365
46.3915 0.391
46.4011 0.370
46.4108 0.432
46.4204 0.333
46.4300 0.406
46.4396 0.417
46.4492 0.359
46.4588 0.359
46.4685 0.375
46.4781 0.474
46.4877 0.359
46.4973 0.438
46.5069 0.354
46.5165 0.365
46.5262 0.401
46.5358 0.411
46.5454 0.323
46.5550 0.391
46.5646 0.443
46.5742 0.339
46.5839 0.365
46.5935 0.302
46.6031 0.333
46.6127 0.453
46.6223 0.339
46.6319 0.365
46.6416 0.339
46.6512 0.365
46.6608 0.380
46.6704 0.318
46.6800 0.422
46.6896 0.370
46.6993 0.396
46.7089 0.359
46.7185 0.391
46.7281 0.448
46.7377 0.365
46.7473 0.302
46.7570 0.391
46.7666 0.359
46.7762 0.333
46.7858 0.276
46.7954 0.349
46.8050 0.380
46.8147 0.391
46.8243 0.396
46.8339 0.339
46.8435 0.422
46.8531 0.365
46.8628 0.370
46.8724 0.438
46.8820 0.401
46.8916 0.391
46.9012 0.448
46.9108 0.432
46.9205 0.328
46.9301 0.391
46.9397 0.359
46.9493 0.417
46.9589 0.396
46.9685 0.438
46.9782 0.349
46.9878 0.422
46.9974 0.354
47.0070 0.391
47.0166 0.344
47.0262 0.375
47.0359 0.385
47.0455 0.453
47.0551 0.495
47.0647 0.349
47.0743 0.464
47.0839 0.443
47.0936 0.453
47.1032 0.464
47.1128 0.484
47.1224 0.443
47.1320 0.438
47.1416 0.458
47.1513 0.453
47.1609 0.427
47.1705 0.401
47.1801 0.344
47.1897 0.417
47.1993 0.417
47.2090 0.464
47.2186 0.500
47.2282 0.479
47.2378 0.443
47.2474 0.427
47.2570 0.505
47.2667 0.417
47.2763 0.396
47.2859 0.453
47.2955 0.417
47.3051 0.417
47.3148 0.417
47.3244 0.411
47.3340 0.401
47.3436 0.365
47.3532 0.417
47.3628 0.547
47.3725 0.479
47.3821 0.438
47.3917 0.484
47.4013 0.427
47.4109 0.448
47.4205 0.526
47.4302 0.479
47.4398 0.458
47.4494 0.505
47.4590 0.510
47.4686 0.484
47.4782 0.573
47.4879 0.521
47.4975 0.536
47.5071 0.505
47.5167 0.411
47.5263 0.438
47.5359 0.563
47.5456 0.406
47.5552 0.422
47.5648 0.469
47.5744 0.359
47.5840 0.427
47.5936 0.464
47.6033 0.438
47.6129 0.432
47.6225 0.479
47.6321 0.448
47.6417 0.401
47.6513 0.411
47.6610 0.453
47.6706 0.422
47.6802 0.458
47.6898 0.406
47.6994 0.313
47.7090 0.354
47.7187 0.354
47.7283 0.266
47.7379 0.375
47.7475 0.432
47.7571 0.396
47.7667 0.406
47.7764 0.375
47.7860 0.380
47.7956 0.307
47.8052 0.370
47.8148 0.323
47.8245 0.307
47.8341 0.260
47.8437 0.406
47.8533 0.380
47.8629 0.344
47.8725 0.328
47.8822 0.349
47.8918 0.385
47.9014 0.297
47.9110 0.297
47.9206 0.297
47.9302 0.375
47.9399 0.401
47.9495 0.276
47.9591 0.292
47.9687 0.417
47.9783 0.380
47.9879 0.297
47.9976 0.370
48.0072 0.250
48.0168 0.365
48.0264 0.286
48.0360 0.313
48.0456 0.271
48.0553 0.250
48.0649 0.375
48.0745 0.276
48.0841 0.318
48.0937 0.323
48.1033 0.328
48.1130 0.297
48.1226 0.328
48.1322 0.302
48.1418 0.313
48.1514 0.354
48.1610 0.302
48.1707 0.344
48.1803 0.349
48.1899 0.385
48.1995 0.375
48.2091 0.318
48.2187 0.391
48.2284 0.333
48.2380 0.302
48.2476 0.250
48.2572 0.396
48.2668 0.302
48.2764 0.349
48.2861 0.365
48.2957 0.365
48.3053 0.401
48.3149 0.328
48.3245 0.417
48.3342 0.370
48.3438 0.365
48.3534 0.438
48.3630 0.365
48.3726 0.458
48.3822 0.339
48.3919 0.370
48.4015 0.438
48.4111 0.469
48.4207 0.469
48.4303 0.495
48.4399 0.500
48.4496 0.411
48.4592 0.458
48.4688 0.510
48.4784 0.479
48.4880 0.500
48.4976 0.443
48.5073 0.568
48.5169 0.479
48.5265 0.438
48.5361 0.500
48.5457 0.396
48.5553 0.490
48.5650 0.411
48.5746 0.427
48.5842 0.484
48.5938 0.448
48.6034 0.349
48.6130 0.448
48.6227 0.474
48.6323 0.401
48.6419 0.464
48.6515 0.391
48.6611 0.385
48.6707 0.484
48.6804 0.359
48.6900 0.432
48.6996 0.443
48.7092 0.302
48.7188 0.323
48.7284 0.276
48.7381 0.297
48.7477 0.328
48.7573 0.333
48.7669 0.354
48.7765 0.323
48.7861 0.328
48.7958 0.307
48.8054 0.313
48.8150 0.344
48.8246 0.323
48.8342 0.339
48.8439 0.307
48.8535 0.323
48.8631 0.302
48.8727 0.281
48.8823 0.318
48.8919 0.375
48.9016 0.380
48.9112 0.302
48.9208 0.432
48.9304 0.260
48.9400 0.323
48.9496 0.297
48.9593 0.276
48.9689 0.198
48.9785 0.297
48.9881 0.318
48.9977 0.292
49.0073 0.359
49.0170 0.302
49.0266 0.333
49.0362 0.339
49.0458 0.328
49.0554 0.313
49.0650 0.344
49.0747 0.292
49.0843 0.271
49.0939 0.333
49.1035 0.333
49.1131 0.297
49.1227 0.286
49.1324 0.245
49.1420 0.292
49.1516 0.286
49.1612 0.318
49.1708 0.328
49.1804 0.318
49.1901 0.214
49.1997 0.359
49.2093 0.339
49.2189 0.302
49.2285 0.318
49.2381 0.234
49.2478 0.219
49.2574 0.219
49.2670 0.292
49.2766 0.297
49.2862 0.292
49.2959 0.307
49.3055 0.354
49.3151 0.234
49.3247 0.323
49.3343 0.219
49.3439 0.328
49.3536 0.323
49.3632 0.260
49.3728 0.276
49.3824 0.260
49.3920 0.344
49.4016 0.245
49.4113 0.302
49.4209 0.292
49.4305 0.286
49.4401 0.255
49.4497 0.271
49.4593 0.339
49.4690 0.266
49.4786 0.313
49.4882 0.292
49.4978 0.281
49.5074 0.260
49.5170 0.266
49.5267 0.313
49.5363 0.224
49.5459 0.292
49.5555 0.250
49.5651 0.333
49.5747 0.292
49.5844 0.271
49.5940 0.333
49.6036 0.245
49.6132 0.297
49.6228 0.271
49.6324 0.302
49.6421 0.271
49.6517 0.245
49.6613 0.307
49.6709 0.240
49.6805 0.339
49.6901 0.328
49.6998 0.328
49.7094 0.266
49.7190 0.271
49.7286 0.292
49.7382 0.255
49.7478 0.297
49.7575 0.297
49.7671 0.286
49.7767 0.229
49.7863 0.302
49.7959 0.339
49.8056 0.255
49.8152 0.276
49.8248 0.281
49.8344 0.276
49.8440 0.339
49.8536 0.297
49.8633 0.245
49.8729 0.266
49.8825 0.281
49.8921 0.302
49.9017 0.339
49.9113 0.302
49.9210 0.260
49.9306 0.333
49.9402 0.313
49.9498 0.271
49.9594 0.255
49.9690 0.286
49.9787 0.292
49.9883 0.302
49.9979 0.286
50.0075 0.297
50.0171 0.302
50.0267 0.339
50.0364 0.307
50.0460 0.344
50.0556 0.328
50.0652 0.328
50.0748 0.365
50.0844 0.359
50.0941 0.354
50.1037 0.297
50.1133 0.313
50.1229 0.286
50.1325 0.313
50.1421 0.292
50.1518 0.281
50.1614 0.188
50.1710 0.313
50.1806 0.266
50.1902 0.292
50.1998 0.245
50.2095 0.260
50.2191 0.333
50.2287 0.318
50.2383 0.354
50.2479 0.328
50.2575 0.266
50.2672 0.292
50.2768 0.240
50.2864 0.281
50.2960 0.250
50.3056 0.229
50.3153 0.333
50.3249 0.266
50.3345 0.297
50.3441 0.266
50.3537 0.333
50.3633 0.302
50.3730 0.255
50.3826 0.250
50.3922 0.286
50.4018 0.234
50.4114 0.266
50.4210 0.313
50.4307 0.302
50.4403 0.286
50.4499 0.292
50.4595 0.240
50.4691 0.359
50.4787 0.297
50.4884 0.333
50.4980 0.281
50.5076 0.276
50.5172 0.292
50.5268 0.266
50.5364 0.323
50.5461 0.255
50.5557 0.281
50.5653 0.255
50.5749 0.297
50.5845 0.245
50.5941 0.328
50.6038 0.271
50.6134 0.260
50.6230 0.250
50.6326 0.318
50.6422 0.276
50.6518 0.255
50.6615 0.318
50.6711 0.313
50.6807 0.302
50.6903 0.318
50.6999 0.240
50.7095 0.281
50.7192 0.229
50.7288 0.349
50.7384 0.292
50.7480 0.297
50.7576 0.328
50.7672 0.240
50.7769 0.281
50.7865 0.271
50.7961 0.229
50.8057 0.328
50.8153 0.307
50.8250 0.234
50.8346 0.214
50.8442 0.313
50.8538 0.250
50.8634 0.245
50.8730 0.271
50.8827 0.250
50.8923 0.323
50.9019 0.281
50.9115 0.276
50.9211 0.292
50.9307 0.302
50.9404 0.286
50.9500 0.354
50.9596 0.323
50.9692 0.203
50.9788 0.328
50.9884 0.276
50.9981 0.281
51.0077 0.313
51.0173 0.266
51.0269 0.344
51.0365 0.255
51.0461 0.271
51.0558 0.260
51.0654 0.307
51.0750 0.307
51.0846 0.276
51.0942 0.255
51.1038 0.276
51.1135 0.276
51.1231 0.245
51.1327 0.229
51.1423 0.339
51.1519 0.240
51.1615 0.307
51.1712 0.276
51.1808 0.245
51.1904 0.229
51.2000 0.313
51.2096 0.297
51.2192 0.281
51.2289 0.224
51.2385 0.292
51.2481 0.286
51.2577 0.328
51.2673 0.266
51.2769 0.276
51.2866 0.255
51.2962 0.271
51.3058 0.229
51.3154 0.260
51.3250 0.292
51.3347 0.292
51.3443 0.240
51.3539 0.224
51.3635 0.167
51.3731 0.203
51.3827 0.245
51.3924 0.229
51.4020 0.297
51.4116 0.214
51.4212 0.292
51.4308 0.292
51.4404 0.219
51.4501 0.260
51.4597 0.276
51.4693 0.203
51.4789 0.245
51.4885 0.229
51.4981 0.266
51.5078 0.219
51.5174 0.323
51.5270 0.307
51.5366 0.240
51.5462 0.276
51.5558 0.234
51.5655 0.313
51.5751 0.266
51.5847 0.255
51.5943 0.260
51.6039 0.240
51.6135 0.281
51.6232 0.344
51.6328 0.313
51.6424 0.234
51.6520 0.313
51.6616 0.219
51.6712 0.281
51.6809 0.255
51.6905 0.250
51.7001 0.286
51.7097 0.219
51.7193 0.292
51.7289 0.250
51.7386 0.245
51.7482 0.255
51.7578 0.266
51.7674 0.219
51.7770 0.234
51.7867 0.266
51.7963 0.240
51.8059 0.255
51.8155 0.281
51.8251 0.240
51.8347 0.302
51.8444 0.292
51.8540 0.172
51.8636 0.313
51.8732 0.229
51.8828 0.208
51.8924 0.234
51.9021 0.271
51.9117 0.234
51.9213 0.245
51.9309 0.318
51.9405 0.224
51.9501 0.193
51.9598 0.318
51.9694 0.271
51.9790 0.286
51.9886 0.276
51.9982 0.234
52.0078 0.266
52.0175 0.219
52.0271 0.240
52.0367 0.297
52.0463 0.281
52.0559 0.297
52.0655 0.219
52.0752 0.214
52.0848 0.271
52.0944 0.276
52.1040 0.292
52.1136 0.224
52.1232 0.255
52.1329 0.219
52.1425 0.224
52.1521 0.313
52.1617 0.359
52.1713 0.234
52.1809 0.333
52.1906 0.250
52.2002 0.313
52.2098 0.297
52.2194 0.255
52.2290 0.245
52.2386 0.307
52.2483 0.313
52.2579 0.250
52.2675 0.260
52.2771 0.328
52.2867 0.281
52.2964 0.281
52.3060 0.307
52.3156 0.313
52.3252 0.339
52.3348 0.318
52.3444 0.266
52.3541 0.297
52.3637 0.323
52.3733 0.323
52.3829 0.276
52.3925 0.214
52.4021 0.302
52.4118 0.323
52.4214 0.255
52.4310 0.276
52.4406 0.313
52.4502 0.260
52.4598 0.271
52.4695 0.276
52.4791 0.203
52.4887 0.266
52.4983 0.307
52.5079 0.245
52.5175 0.286
52.5272 0.281
52.5368 0.260
52.5464 0.271
52.5560 0.234
52.5656 0.234
52.5752 0.255
52.5849 0.245
52.5945 0.266
52.6041 0.250
52.6137 0.224
52.6233 0.250
52.6329 0.219
52.6426 0.234
52.6522 0.318
52.6618 0.313
52.6714 0.307
52.6810 0.344
52.6906 0.240
52.7003 0.286
52.7099 0.198
52.7195 0.250
52.7291 0.292
52.7387 0.219
52.7483 0.229
52.7580 0.255
52.7676 0.292
52.7772 0.229
52.7868 0.250
52.7964 0.234
52.8061 0.224
52.8157 0.224
52.8253 0.208
52.8349 0.224
52.8445 0.250
52.8541 0.292
52.8638 0.219
52.8734 0.250
52.8830 0.302
52.8926 0.276
52.9022 0.245
52.9118 0.313
52.9215 0.281
52.9311 0.240
52.9407 0.234
52.9503 0.229
52.9599 0.281
52.9695 0.276
52.9792 0.250
52.9888 0.255
52.9984 0.245
53.0080 0.177
53.0176 0.250
53.0272 0.266
53.0369 0.250
53.0465 0.250
53.0561 0.219
53.0657 0.297
53.0753 0.245
53.0849 0.245
53.0946 0.229
53.1042 0.266
53.1138 0.250
53.1234 0.245
53.1330 0.260
53.1426 0.281
53.1523 0.234
53.1619 0.219
53.1715 0.286
53.1811 0.208
53.1907 0.245
53.2003 0.203
53.2100 0.281
53.2196 0.297
53.2292 0.307
53.2388 0.339
53.2484 0.260
53.2580 0.198
53.2677 0.271
53.2773 0.328
53.2869 0.182
53.2965 0.214
53.3061 0.260
53.3158 0.286
53.3254 0.214
53.3350 0.286
53.3446 0.281
53.3542 0.297
53.3638 0.297
53.3735 0.286
53.3831 0.245
53.3927 0.234
53.4023 0.271
53.4119 0.245
53.4215 0.307
53.4312 0.266
53.4408 0.281
53.4504 0.266
53.4600 0.219
53.4696 0.224
53.4792 0.255
53.4889 0.266
53.4985 0.271
53.5081 0.297
53.5177 0.271
53.5273 0.245
53.5369 0.401
53.5466 0.307
53.5562 0.328
53.5658 0.359
53.5754 0.302
53.5850 0.328
53.5946 0.307
53.6043 0.302
53.6139 0.313
53.6235 0.313
53.6331 0.313
53.6427 0.359
53.6523 0.370
53.6620 0.396
53.6716 0.354
53.6812 0.453
53.6908 0.359
53.7004 0.380
53.7100 0.391
53.7197 0.500
53.7293 0.432
53.7389 0.443
53.7485 0.490
53.7581 0.516
53.7677 0.490
53.7774 0.464
53.7870 0.589
53.7966 0.615
53.8062 0.677
53.8158 0.557
53.8255 0.536
53.8351 0.573
53.8447 0.594
53.8543 0.531
53.8639 0.604
53.8735 0.531
53.8832 0.469
53.8928 0.510
53.9024 0.568
53.9120 0.568
53.9216 0.552
53.9312 0.526
53.9409 0.563
53.9505 0.464
53.9601 0.490
53.9697 0.448
53.9793 0.391
53.9889 0.427
53.9986 0.422
54.0082 0.422
54.0178 0.490
54.0274 0.432
54.0370 0.391
54.0466 0.359
54.0563 0.417
54.0659 0.240
54.0755 0.292
54.0851 0.333
54.0947 0.375
54.1043 0.385
54.1140 0.344
54.1236 0.417
54.1332 0.385
54.1428 0.276
54.1524 0.339
54.1620 0.307
54.1717 0.276
54.1813 0.208
54.1909 0.266
54.2005 0.359
54.2101 0.266
54.2197 0.240
54.2294 0.250
54.2390 0.260
54.2486 0.224
54.2582 0.297
54.2678 0.286
54.2775 0.276
54.2871 0.276
54.2967 0.302
54.3063 0.240
54.3159 0.219
54.3255 0.240
54.3352 0.292
54.3448 0.188
54.3544 0.203
54.3640 0.266
54.3736 0.219
54.3832 0.240
54.3929 0.193
54.4025 0.224
54.4121 0.234
54.4217 0.281
54.4313 0.255
54.4409 0.224
54.4506 0.286
54.4602 0.234
54.4698 0.271
54.4794 0.260
54.4890 0.292
54.4986 0.266
54.5083 0.214
54.5179 0.292
54.5275 0.245
54.5371 0.250
54.5467 0.271
54.5563 0.234
54.5660 0.245
54.5756 0.245
54.5852 0.266
54.5948 0.255
54.6044 0.260
54.6140 0.245
54.6237 0.198
54.6333 0.260
54.6429 0.245
54.6525 0.281
54.6621 0.307
54.6717 0.240
54.6814 0.297
54.6910 0.286
54.7006 0.250
54.7102 0.250
54.7198 0.255
54.7294 0.339
54.7391 0.349
54.7487 0.188
54.7583 0.229
54.7679 0.260
54.7775 0.250
54.7872 0.307
54.7968 0.182
54.8064 0.281
54.8160 0.281
54.8256 0.276
54.8352 0.292
54.8449 0.250
54.8545 0.266
54.8641 0.255
54.8737 0.224
54.8833 0.193
54.8929 0.208
54.9026 0.229
54.9122 0.234
54.9218 0.250
54.9314 0.193
54.9410 0.266
54.9506 0.229
54.9603 0.266
54.9699 0.229
54.9795 0.245
54.9891 0.245
54.9987 0.240
55.0083 0.318
55.0180 0.266
55.0276 0.276
55.0372 0.302
55.0468 0.292
55.0564 0.229
55.0660 0.234
55.0757 0.229
55.0853 0.271
55.0949 0.234
55.1045 0.240
55.1141 0.271
55.1237 0.245
55.1334 0.255
55.1430 0.245
55.1526 0.224
55.1622 0.224
55.1718 0.167
55.1814 0.266
55.1911 0.219
55.2007 0.250
55.2103 0.250
55.2199 0.250
55.2295 0.245
55.2391 0.297
55.2488 0.224
55.2584 0.214
55.2680 0.203
55.2776 0.281
55.2872 0.193
55.2969 0.266
55.3065 0.245
55.3161 0.208
55.3257 0.260
55.3353 0.255
55.3449 0.198
55.3546 0.250
55.3642 0.245
55.3738 0.245
55.3834 0.260
55.3930 0.229
55.4026 0.214
55.4123 0.240
55.4219 0.229
55.4315 0.245
55.4411 0.234
55.4507 0.198
55.4603 0.224
55.4700 0.266
55.4796 0.297
55.4892 0.245
55.4988 0.224
55.5084 0.193
55.5180 0.245
55.5277 0.203
55.5373 0.224
55.5469 0.245
55.5565 0.224
55.5661 0.229
55.5757 0.302
55.5854 0.266
55.5950 0.281
55.6046 0.208
55.6142 0.318
55.6238 0.266
55.6334 0.234
55.6431 0.240
55.6527 0.271
55.6623 0.260
55.6719 0.193
55.6815 0.234
55.6911 0.203
55.7008 0.245
55.7104 0.229
55.7200 0.208
55.7296 0.260
55.7392 0.203
55.7488 0.245
55.7585 0.240
55.7681 0.219
55.7777 0.177
55.7873 0.146
55.7969 0.255
55.8066 0.234
55.8162 0.245
55.8258 0.266
55.8354 0.208
55.8450 0.208
55.8546 0.240
55.8643 0.297
55.8739 0.260
55.8835 0.245
55.8931 0.214
55.9027 0.208
55.9123 0.297
55.9220 0.240
55.9316 0.271
55.9412 0.193
55.9508 0.266
55.9604 0.224
55.9700 0.229
55.9797 0.219
55.9893 0.255
55.9989 0.234
56.0085 0.208
56.0181 0.234
56.0277 0.141
56.0374 0.260
56.0470 0.255
56.0566 0.245
56.0662 0.250
56.0758 0.224
56.0854 0.260
56.0951 0.266
56.1047 0.208
56.1143 0.328
56.1239 0.188
56.1335 0.276
56.1431 0.255
56.1528 0.214
56.1624 0.255
56.1720 0.229
56.1816 0.188
56.1912 0.198
56.2008 0.240
56.2105 0.250
56.2201 0.193
56.2297 0.276
56.2393 0.240
56.2489 0.276
56.2585 0.260
56.2682 0.214
56.2778 0.339
56.2874 0.214
56.2970 0.260
56.3066 0.271
56.3163 0.229
56.3259 0.271
56.3355 0.250
56.3451 0.203
56.3547 0.255
56.3643 0.276
56.3740 0.240
56.3836 0.245
56.3932 0.260
56.4028 0.198
56.4124 0.188
56.4220 0.182
56.4317 0.214
56.4413 0.255
56.4509 0.297
56.4605 0.391
56.4701 0.255
56.4797 0.255
56.4894 0.286
56.4990 0.292
56.5086 0.260
56.5182 0.224
56.5278 0.214
56.5374 0.302
56.5471 0.276
56.5567 0.333
56.5663 0.292
56.5759 0.313
56.5855 0.266
56.5951 0.224
56.6048 0.255
56.6144 0.224
56.6240 0.260
56.6336 0.240
56.6432 0.286
56.6528 0.260
56.6625 0.260
56.6721 0.208
56.6817 0.229
56.6913 0.266
56.7009 0.328
56.7105 0.245
56.7202 0.161
56.7298 0.276
56.7394 0.198
56.7490 0.266
56.7586 0.271
56.7683 0.219
56.7779 0.260
56.7875 0.281
56.7971 0.292
56.8067 0.292
56.8163 0.234
56.8260 0.302
56.8356 0.229
56.8452 0.208
56.8548 0.229
56.8644 0.219
56.8740 0.266
56.8837 0.250
56.8933 0.255
56.9029 0.276
56.9125 0.302
56.9221 0.255
56.9317 0.286
56.9414 0.151
56.9510 0.224
56.9606 0.245
56.9702 0.260
56.9798 0.208
56.9894 0.297
56.9991 0.250
57.0087 0.281
57.0183 0.234
57.0279 0.250
57.0375 0.255
57.0471 0.281
57.0568 0.193
57.0664 0.240
57.0760 0.240
57.0856 0.219
57.0952 0.271
57.1048 0.240
57.1145 0.260
57.1241 0.245
57.1337 0.276
57.1433 0.198
57.1529 0.229
57.1625 0.271
57.1722 0.234
57.1818 0.318
57.1914 0.260
57.2010 0.302
57.2106 0.307
57.2202 0.208
57.2299 0.276
57.2395 0.250
57.2491 0.224
57.2587 0.318
57.2683 0.307
57.2780 0.240
57.2876 0.214
57.2972 0.255
57.3068 0.307
57.3164 0.349
57.3260 0.344
57.3357 0.313
57.3453 0.266
57.3549 0.401
57.3645 0.354
57.3741 0.271
57.3837 0.318
57.3934 0.401
57.4030 0.339
57.4126 0.286
57.4222 0.318
57.4318 0.313
57.4414 0.281
57.4511 0.307
57.4607 0.318
57.4703 0.339
57.4799 0.333
57.4895 0.318
57.4991 0.339
57.5088 0.286
57.5184 0.307
57.5280 0.281
57.5376 0.260
57.5472 0.302
57.5568 0.260
57.5665 0.328
57.5761 0.302
57.5857 0.229
57.5953 0.250
57.6049 0.234
57.6145 0.240
57.6242 0.276
57.6338 0.240
57.6434 0.177
57.6530 0.271
57.6626 0.240
57.6722 0.323
57.6819 0.245
57.6915 0.182
57.7011 0.250
57.7107 0.266
57.7203 0.224
57.7299 0.276
57.7396 0.276
57.7492 0.313
57.7588 0.276
57.7684 0.281
57.7780 0.276
57.7877 0.219
57.7973 0.266
57.8069 0.177
57.8165 0.260
57.8261 0.318
57.8357 0.260
57.8454 0.229
57.8550 0.224
57.8646 0.229
57.8742 0.286
57.8838 0.286
57.8934 0.245
57.9031 0.245
57.9127 0.214
57.9223 0.188
57.9319 0.260
57.9415 0.234
57.9511 0.250
57.9608 0.208
57.9704 0.245
57.9800 0.260
57.9896 0.240
57.9992 0.281
58.0088 0.219
58.0185 0.281
58.0281 0.198
58.0377 0.198
58.0473 0.229
58.0569 0.266
58.0665 0.240
58.0762 0.240
58.0858 0.250
58.0954 0.198
58.1050 0.297
58.1146 0.313
58.1242 0.224
58.1339 0.229
58.1435 0.250
58.1531 0.281
58.1627 0.266
58.1723 0.260
58.1819 0.229
58.1916 0.240
58.2012 0.260
58.2108 0.198
58.2204 0.224
58.2300 0.234
58.2396 0.260
58.2493 0.255
58.2589 0.177
58.2685 0.266
58.2781 0.198
58.2877 0.214
58.2974 0.286
58.3070 0.245
58.3166 0.339
58.3262 0.229
58.3358 0.214
58.3454 0.266
58.3551 0.203
58.3647 0.292
58.3743 0.266
58.3839 0.250
58.3935 0.271
58.4031 0.240
58.4128 0.276
58.4224 0.224
58.4320 0.229
58.4416 0.260
58.4512 0.245
58.4608 0.214
58.4705 0.234
58.4801 0.198
58.4897 0.260
58.4993 0.286
58.5089 0.292
58.5185 0.177
58.5282 0.307
58.5378 0.339
58.5474 0.271
58.5570 0.260
58.5666 0.318
58.5762 0.219
58.5859 0.255
58.5955 0.240
58.6051 0.234
58.6147 0.302
58.6243 0.276
58.6339 0.328
58.6436 0.177
58.6532 0.208
58.6628 0.302
58.6724 0.245
58.6820 0.198
58.6916 0.302
58.7013 0.182
58.7109 0.281
58.7205 0.297
58.7301 0.260
58.7397 0.307
58.7493 0.271
58.7590 0.297
58.7686 0.297
58.7782 0.203
58.7878 0.313
58.7974 0.240
58.8071 0.281
58.8167 0.260
58.8263 0.224
58.8359 0.271
58.8455 0.292
58.8551 0.250
58.8648 0.250
58.8744 0.307
58.8840 0.292
58.8936 0.271
58.9032 0.297
58.9128 0.219
58.9225 0.260
58.9321 0.214
58.9417 0.245
58.9513 0.302
58.9609 0.229
58.9705 0.266
58.9802 0.271
58.9898 0.266
58.9994 0.193
59.0090 0.297
59.0186 0.240
59.0282 0.307
59.0379 0.318
59.0475 0.286
59.0571 0.286
59.0667 0.286
59.0763 0.224
59.0859 0.224
59.0956 0.203
59.1052 0.339
59.1148 0.214
59.1244 0.302
59.1340 0.260
59.1436 0.214
59.1533 0.229
59.1629 0.302
59.1725 0.276
59.1821 0.333
59.1917 0.307
59.2013 0.323
59.2110 0.318
59.2206 0.349
59.2302 0.245
59.2398 0.260
59.2494 0.323
59.2591 0.302
59.2687 0.349
59.2783 0.260
59.2879 0.208
59.2975 0.240
59.3071 0.354
59.3168 0.234
59.3264 0.219
59.3360 0.240
59.3456 0.292
59.3552 0.307
59.3648 0.245
59.3745 0.255
59.3841 0.271
59.3937 0.255
59.4033 0.229
59.4129 0.240
59.4225 0.318
59.4322 0.292
59.4418 0.281
59.4514 0.344
59.4610 0.297
59.4706 0.240
59.4802 0.313
59.4899 0.411
59.4995 0.297
59.5091 0.286
59.5187 0.365
59.5283 0.297
59.5379 0.297
59.5476 0.307
59.5572 0.307
59.5668 0.349
59.5764 0.307
59.5860 0.333
59.5956 0.323
59.6053 0.276
59.6149 0.208
59.6245 0.307
59.6341 0.260
59.6437 0.354
59.6533 0.323
59.6630 0.406
59.6726 0.349
59.6822 0.266
59.6918 0.292
59.7014 0.396
59.7110 0.427
59.7207 0.354
59.7303 0.313
59.7399 0.333
59.7495 0.375
59.7591 0.297
59.7688 0.323
59.7784 0.365
59.7880 0.370
59.7976 0.396
59.8072 0.365
59.8168 0.417
59.8265 0.344
59.8361 0.354
59.8457 0.307
59.8553 0.406
59.8649 0.375
59.8745 0.313
59.8842 0.385
59.8938 0.422
59.9034 0.318
59.9130 0.380
59.9226 0.438
59.9322 0.359
59.9419 0.328
59.9515 0.385
59.9611 0.354
59.9707 0.375
59.9803 0.385
59.9899 0.292
59.9996 0.349
60.0092 0.365
60.0188 0.474
60.0284 0.370
60.0380 0.365
60.0476 0.406
60.0573 0.344
60.0669 0.448
60.0765 0.401
60.0861 0.375
60.0957 0.375
60.1053 0.391
60.1150 0.354
60.1246 0.380
60.1342 0.292
60.1438 0.411
60.1534 0.401
60.1630 0.391
60.1727 0.349
60.1823 0.375
60.1919 0.339
60.2015 0.354
60.2111 0.427
60.2207 0.375
60.2304 0.370
60.2400 0.349
60.2496 0.307
60.2592 0.370
60.2688 0.406
60.2785 0.359
60.2881 0.474
60.2977 0.349
60.3073 0.365
60.3169 0.417
60.3265 0.344
60.3362 0.370
60.3458 0.474
60.3554 0.354
60.3650 0.417
60.3746 0.344
60.3842 0.344
60.3939 0.443
60.4035 0.458
60.4131 0.438
60.4227 0.443
60.4323 0.375
60.4419 0.380
60.4516 0.375
60.4612 0.396
60.4708 0.432
60.4804 0.495
60.4900 0.469
60.4996 0.370
60.5093 0.344
60.5189 0.438
60.5285 0.438
60.5381 0.385
60.5477 0.438
60.5573 0.526
60.5670 0.417
60.5766 0.484
60.5862 0.516
60.5958 0.552
60.6054 0.422
60.6150 0.479
60.6247 0.427
60.6343 0.547
60.6439 0.438
60.6535 0.484
60.6631 0.552
60.6727 0.521
60.6824 0.542
60.6920 0.432
60.7016 0.495
60.7112 0.521
60.7208 0.432
60.7304 0.594
60.7401 0.526
60.7497 0.469
60.7593 0.474
60.7689 0.557
60.7785 0.563
60.7882 0.536
60.7978 0.568
60.8074 0.505
60.8170 0.505
60.8266 0.547
60.8362 0.578
60.8459 0.599
60.8555 0.526
60.8651 0.552
60.8747 0.573
60.8843 0.552
60.8939 0.563
60.9036 0.542
60.9132 0.646
60.9228 0.599
60.9324 0.635
60.9420 0.568
60.9516 0.526
60.9613 0.583
60.9709 0.630
60.9805 0.552
60.9901 0.651
60.9997 0.536
61.0093 0.740
61.0190 0.604
61.0286 0.552
61.0382 0.672
61.0478 0.630
61.0574 0.557
61.0670 0.667
61.0767 0.609
61.0863 0.635
61.0959 0.724
61.1055 0.776
61.1151 0.625
61.1247 0.724
61.1344 0.661
61.1440 0.635
61.1536 0.656
61.1632 0.724
61.1728 0.661
61.1824 0.688
61.1921 0.667
61.2017 0.875
61.2113 0.750
61.2209 0.729
61.2305 0.750
61.2401 0.750
61.2498 0.745
61.2594 0.828
61.2690 0.854
61.2786 0.766
61.2882 0.750
61.2979 0.797
61.3075 0.833
61.3171 0.729
61.3267 1.036
61.3363 0.875
61.3459 0.896
61.3556 1.042
61.3652 0.953
61.3748 1.016
61.3844 1.135
61.3940 1.068
61.4036 0.995
61.4133 1.063
61.4229 0.974
61.4325 1.005
61.4421 1.120
61.4517 1.151
61.4613 1.146
61.4710 1.047
61.4806 1.203
61.4902 1.281
61.4998 1.151
61.5094 1.188
61.5190 1.359
61.5287 1.365
61.5383 1.167
61.5479 1.286
61.5575 1.365
61.5671 1.516
61.5767 1.688
61.5864 1.641
61.5960 1.656
61.6056 1.568
61.6152 1.646
61.6248 1.583
61.6344 1.661
61.6441 1.875
61.6537 1.813
61.6633 1.833
61.6729 1.958
61.6825 2.026
61.6921 2.109
61.7018 2.234
61.7114 2.271
61.7210 2.271
61.7306 2.313
61.7402 2.578
61.7499 2.432
61.7595 2.448
61.7691 2.724
61.7787 2.844
61.7883 2.625
61.7979 2.719
61.8076 2.818
61.8172 3.109
61.8268 3.198
61.8364 3.182
61.8460 3.510
61.8556 3.531
61.8653 3.536
61.8749 3.333
61.8845 3.724
61.8941 3.766
61.9037 3.969
61.9133 4.156
61.9230 4.146
61.9326 4.135
61.9422 4.656
61.9518 4.651
61.9614 4.833
61.9710 4.990
61.9807 4.672
61.9903 5.307
61.9999 5.354
62.0095 5.167
62.0191 5.625
62.0287 6.042
62.0384 5.766
62.0480 5.953
62.0576 5.844
62.0672 6.484
62.0768 6.380
62.0864 6.536
62.0961 6.458
62.1057 6.552
62.1153 7.026
62.1249 6.865
62.1345 7.073
62.1441 7.208
62.1538 7.297
62.1634 7.255
62.1730 7.891
62.1826 7.438
62.1922 7.609
62.2018 7.536
62.2115 7.557
62.2211 7.964
62.2307 7.714
62.2403 7.557
62.2499 7.755
62.2596 7.802
62.2692 8.094
62.2788 7.750
62.2884 8.047
62.2980 8.177
62.3076 7.583
62.3173 7.766
62.3269 7.469
62.3365 7.417
62.3461 7.630
62.3557 7.760
62.3653 7.594
62.3750 7.458
62.3846 7.271
62.3942 7.130
62.4038 6.807
62.4134 6.953
62.4230 7.130
62.4327 6.797
62.4423 6.380
62.4519 6.583
62.4615 6.193
62.4711 6.422
62.4807 6.005
62.4904 5.656
62.5000 5.891
62.5096 5.589
62.5192 5.578
62.5288 5.219
62.5384 5.094
62.5481 5.047
62.5577 4.813
62.5673 4.651
62.5769 4.542
62.5865 4.479
62.5961 3.995
62.6058 4.354
62.6154 4.219
62.6250 4.005
62.6346 3.964
62.6442 3.729
62.6538 3.797
62.6635 3.641
62.6731 3.583
62.6827 3.385
62.6923 3.406
62.7019 3.063
62.7115 3.089
62.7212 2.964
62.7308 2.661
62.7404 2.818
62.7500 2.599
62.7596 2.510
62.7693 2.500
62.7789 2.469
62.7885 2.542
62.7981 2.339
62.8077 2.151
62.8173 2.188
62.8270 1.922
62.8366 2.125
62.8462 1.891
62.8558 1.703
62.8654 1.927
62.8750 1.589
62.8847 1.604
62.8943 1.677
62.9039 1.563
62.9135 1.557
62.9231 1.536
62.9327 1.510
62.9424 1.370
62.9520 1.432
62.9616 1.365
62.9712 1.286
62.9808 1.469
62.9904 1.328
63.0001 1.167
63.0097 1.099
63.0193 1.177
63.0289 1.328
63.0385 1.172
63.0481 0.958
63.0578 1.120
63.0674 1.036
63.0770 0.958
63.0866 1.036
63.0962 0.948
63.1058 1.016
63.1155 0.839
63.1251 1.089
63.1347 0.839
63.1443 0.875
63.1539 0.880
63.1635 0.896
63.1732 0.740
63.1828 0.885
63.1924 0.781
63.2020 0.818
63.2116 0.724
63.2212 0.771
63.2309 0.776
63.2405 0.833
63.2501 0.750
63.2597 0.745
63.2693 0.693
63.2790 0.682
63.2886 0.625
63.2982 0.698
63.3078 0.661
63.3174 0.760
63.3270 0.693
63.3367 0.615
63.3463 0.703
63.3559 0.630
63.3655 0.667
63.3751 0.635
63.3847 0.615
63.3944 0.635
63.4040 0.531
63.4136 0.599
63.4232 0.563
63.4328 0.615
63.4424 0.615
63.4521 0.438
63.4617 0.625
63.4713 0.552
63.4809 0.630
63.4905 0.578
63.5001 0.495
63.5098 0.521
63.5194 0.526
63.5290 0.547
63.5386 0.531
63.5482 0.531
63.5578 0.516
63.5675 0.474
63.5771 0.500
63.5867 0.510
63.5963 0.391
63.6059 0.469
63.6155 0.568
63.6252 0.458
63.6348 0.500
63.6444 0.422
63.6540 0.495
63.6636 0.432
63.6732 0.422
63.6829 0.474
63.6925 0.380
63.7021 0.396
63.7117 0.417
63.7213 0.396
63.7310 0.422
63.7406 0.458
63.7502 0.411
63.7598 0.438
63.7694 0.385
63.7790 0.464
63.7887 0.370
63.7983 0.349
63.8079 0.474
63.8175 0.427
63.8271 0.438
63.8367 0.422
63.8464 0.521
63.8560 0.448
63.8656 0.411
63.8752 0.453
63.8848 0.432
63.8944 0.417
63.9041 0.469
63.9137 0.453
63.9233 0.479
63.9329 0.474
63.9425 0.406
63.9521 0.422
63.9618 0.417
63.9714 0.380
63.9810 0.443
63.9906 0.464
64.0002 0.484
64.0098 0.432
64.0195 0.385
64.0291 0.453
64.0387 0.422
64.0483 0.505
64.0579 0.458
64.0675 0.370
64.0772 0.469
64.0868 0.505
64.0964 0.380
64.1060 0.453
64.1156 0.495
64.1252 0.490
64.1349 0.417
64.1445 0.417
64.1541 0.370
64.1637 0.427
64.1733 0.458
64.1829 0.354
64.1926 0.359
64.2022 0.464
64.2118 0.401
64.2214 0.490
64.2310 0.401
64.2407 0.411
64.2503 0.448
64.2599 0.365
64.2695 0.328
64.2791 0.427
64.2887 0.365
64.2984 0.427
64.3080 0.375
64.3176 0.344
64.3272 0.453
64.3368 0.443
64.3464 0.323
64.3561 0.339
64.3657 0.417
64.3753 0.391
64.3849 0.323
64.3945 0.375
64.4041 0.333
64.4138 0.432
64.4234 0.344
64.4330 0.307
64.4426 0.370
64.4522 0.375
64.4618 0.448
64.4715 0.354
64.4811 0.339
64.4907 0.349
64.5003 0.354
64.5099 0.385
64.5195 0.375
64.5292 0.396
64.5388 0.365
64.5484 0.333
64.5580 0.292
64.5676 0.307
64.5772 0.328
64.5869 0.354
64.5965 0.302
64.6061 0.354
64.6157 0.292
64.6253 0.359
64.6349 0.349
64.6446 0.349
64.6542 0.370
64.6638 0.354
64.6734 0.333
64.6830 0.453
64.6926 0.396
64.7023 0.313
64.7119 0.344
64.7215 0.344
64.7311 0.318
64.7407 0.380
64.7504 0.302
64.7600 0.380
64.7696 0.349
64.7792 0.422
64.7888 0.328
64.7984 0.432
64.8081 0.339
64.8177 0.250
64.8273 0.333
64.8369 0.318
64.8465 0.328
64.8561 0.344
64.8658 0.359
64.8754 0.281
64.8850 0.281
64.8946 0.286
64.9042 0.302
64.9138 0.375
64.9235 0.349
64.9331 0.365
64.9427 0.245
64.9523 0.260
64.9619 0.323
64.9715 0.427
64.9812 0.380
64.9908 0.260
65.0004 0.307
65.0100 0.271
65.0196 0.271
65.0292 0.344
65.0389 0.307
65.0485 0.271
65.0581 0.240
65.0677 0.219
65.0773 0.333
65.0869 0.208
65.0966 0.240
65.1062 0.292
65.1158 0.333
65.1254 0.297
65.1350 0.354
65.1446 0.307
65.1543 0.286
65.1639 0.245
65.1735 0.224
65.1831 0.255
65.1927 0.313
65.2023 0.260
65.2120 0.313
65.2216 0.266
65.2312 0.380
65.2408 0.344
65.2504 0.323
65.2601 0.292
65.2697 0.318
65.2793 0.255
65.2889 0.255
65.2985 0.370
65.3081 0.255
65.3178 0.302
65.3274 0.245
65.3370 0.260
65.3466 0.255
65.3562 0.229
65.3658 0.318
65.3755 0.365
65.3851 0.354
65.3947 0.276
65.4043 0.245
65.4139 0.313
65.4235 0.302
65.4332 0.250
65.4428 0.276
65.4524 0.281
65.4620 0.188
65.4716 0.344
65.4812 0.349
65.4909 0.307
65.5005 0.229
65.5101 0.302
65.5197 0.260
65.5293 0.391
65.5389 0.302
65.5486 0.307
65.5582 0.250
65.5678 0.266
65.5774 0.224
65.5870 0.224
65.5966 0.328
65.6063 0.328
65.6159 0.396
65.6255 0.313
65.6351 0.250
65.6447 0.333
65.6543 0.302
65.6640 0.297
65.6736 0.224
65.6832 0.297
65.6928 0.297
65.7024 0.203
65.7120 0.250
65.7217 0.260
65.7313 0.318
65.7409 0.229
65.7505 0.292
65.7601 0.286
65.7698 0.266
65.7794 0.240
65.7890 0.318
65.7986 0.271
65.8082 0.219
65.8178 0.250
65.8275 0.323
65.8371 0.245
65.8467 0.255
65.8563 0.240
65.8659 0.240
65.8755 0.255
65.8852 0.219
65.8948 0.234
65.9044 0.297
65.9140 0.255
65.9236 0.276
65.9332 0.255
65.9429 0.177
65.9525 0.302
65.9621 0.198
65.9717 0.328
65.9813 0.245
65.9909 0.260
66.0006 0.250
66.0102 0.302
66.0198 0.354
66.0294 0.234
66.0390 0.234
66.0486 0.328
66.0583 0.255
66.0679 0.307
66.0775 0.193
66.0871 0.208
66.0967 0.240
66.1063 0.266
66.1160 0.240
66.1256 0.255
66.1352 0.250
66.1448 0.266
66.1544 0.255
66.1640 0.255
66.1737 0.271
66.1833 0.281
66.1929 0.260
66.2025 0.271
66.2121 0.229
66.2218 0.271
66.2314 0.271
66.2410 0.161
66.2506 0.260
66.2602 0.245
66.2698 0.271
66.2795 0.214
66.2891 0.333
66.2987 0.240
66.3083 0.313
66.3179 0.229
66.3275 0.214
66.3372 0.271
66.3468 0.224
66.3564 0.286
66.3660 0.245
66.3756 0.250
66.3852 0.214
66.3949 0.266
66.4045 0.167
66.4141 0.255
66.4237 0.260
66.4333 0.255
66.4429 0.203
66.4526 0.255
66.4622 0.250
66.4718 0.271
66.4814 0.245
66.4910 0.328
66.5006 0.224
66.5103 0.229
66.5199 0.245
66.5295 0.234
66.5391 0.266
66.5487 0.255
66.5583 0.214
66.5680 0.292
66.5776 0.234
66.5872 0.260
66.5968 0.214
66.6064 0.214
66.6160 0.281
66.6257 0.208
66.6353 0.182
66.6449 0.198
66.6545 0.229
66.6641 0.219
66.6737 0.245
66.6834 0.266
66.6930 0.208
66.7026 0.297
66.7122 0.234
66.7218 0.198
66.7315 0.260
66.7411 0.240
66.7507 0.245
66.7603 0.240
66.7699 0.255
66.7795 0.208
66.7892 0.328
66.7988 0.229
66.8084 0.240
66.8180 0.260
66.8276 0.266
66.8372 0.245
66.8469 0.224
66.8565 0.198
66.8661 0.318
66.8757 0.224
66.8853 0.266
66.8949 0.266
66.9046 0.339
66.9142 0.339
66.9238 0.208
66.9334 0.224
66.9430 0.313
66.9526 0.240
66.9623 0.250
66.9719 0.229
66.9815 0.245
66.9911 0.255
67.0007 0.203
67.0103 0.281
67.0200 0.318
67.0296 0.276
67.0392 0.245
67.0488 0.271
67.0584 0.250
67.0680 0.245
67.0777 0.255
67.0873 0.271
67.0969 0.234
67.1065 0.333
67.1161 0.214
67.1257 0.240
67.1354 0.276
67.1450 0.318
67.1546 0.297
67.1642 0.286
67.1738 0.198
67.1834 0.271
67.1931 0.224
67.2027 0.255
67.2123 0.339
67.2219 0.292
67.2315 0.266
67.2412 0.229
67.2508 0.271
67.2604 0.286
67.2700 0.333
67.2796 0.323
67.2892 0.250
67.2989 0.292
67.3085 0.313
67.3181 0.281
67.3277 0.401
67.3373 0.302
67.3469 0.328
67.3566 0.297
67.3662 0.354
67.3758 0.339
67.3854 0.307
67.3950 0.302
67.4046 0.349
67.4143 0.307
67.4239 0.333
67.4335 0.349
67.4431 0.323
67.4527 0.323
67.4623 0.271
67.4720 0.234
67.4816 0.318
67.4912 0.245
67.5008 0.281
67.5104 0.286
67.5200 0.260
67.5297 0.292
67.5393 0.307
67.5489 0.260
67.5585 0.318
67.5681 0.365
67.5777 0.318
67.5874 0.266
67.5970 0.260
67.6066 0.344
67.6162 0.281
67.6258 0.255
67.6354 0.208
67.6451 0.302
67.6547 0.219
67.6643 0.333
67.6739 0.286
67.6835 0.333
67.6931 0.307
67.7028 0.271
67.7124 0.297
67.7220 0.208
67.7316 0.266
67.7412 0.234
67.7509 0.203
67.7605 0.286
67.7701 0.203
67.7797 0.240
67.7893 0.219
67.7989 0.250
67.8086 0.188
67.8182 0.302
67.8278 0.260
67.8374 0.349
67.8470 0.260
67.8566 0.266
67.8663 0.307
67.8759 0.245
67.8855 0.203
67.8951 0.240
67.9047 0.250
67.9143 0.240
67.9240 0.224
67.9336 0.234
67.9432 0.219
67.9528 0.297
67.9624 0.208
67.9720 0.208
67.9817 0.323
67.9913 0.208
68.0009 0.245
68.0105 0.286
68.0201 0.245
68.0297 0.240
68.0394 0.255
68.0490 0.286
68.0586 0.203
68.0682 0.286
68.0778 0.307
68.0874 0.271
68.0971 0.193
68.1067 0.208
68.1163 0.245
68.1259 0.255
68.1355 0.286
68.1451 0.245
68.1548 0.313
68.1644 0.167
68.1740 0.250
68.1836 0.302
68.1932 0.297
68.2028 0.297
68.2125 0.292
68.2221 0.318
68.2317 0.245
68.2413 0.219
68.2509 0.224
68.2606 0.307
68.2702 0.208
68.2798 0.281
68.2894 0.271
68.2990 0.271
68.3086 0.208
68.3183 0.266
68.3279 0.349
68.3375 0.219
68.3471 0.208
68.3567 0.224
68.3663 0.240
68.3760 0.234
68.3856 0.234
68.3952 0.266
68.4048 0.167
68.4144 0.177
68.4240 0.214
68.4337 0.234
68.4433 0.214
68.4529 0.193
68.4625 0.255
68.4721 0.219
68.4817 0.219
68.4914 0.281
68.5010 0.214
68.5106 0.198
68.5202 0.177
68.5298 0.219
68.5394 0.276
68.5491 0.208
68.5587 0.292
68.5683 0.198
68.5779 0.188
68.5875 0.172
68.5971 0.224
68.6068 0.219
68.6164 0.214
68.6260 0.229
68.6356 0.281
68.6452 0.219
68.6548 0.214
68.6645 0.302
68.6741 0.245
68.6837 0.203
68.6933 0.240
68.7029 0.229
68.7126 0.255
68.7222 0.208
68.7318 0.229
68.7414 0.219
68.7510 0.203
68.7606 0.266
68.7703 0.193
68.7799 0.161
68.7895 0.266
68.7991 0.188
68.8087 0.229
68.8183 0.255
68.8280 0.167
68.8376 0.245
68.8472 0.214
68.8568 0.307
68.8664 0.234
68.8760 0.281
68.8857 0.203
68.8953 0.203
68.9049 0.224
68.9145 0.172
68.9241 0.214
68.9337 0.234
68.9434 0.234
68.9530 0.208
68.9626 0.182
68.9722 0.172
68.9818 0.193
68.9914 0.203
69.0011 0.214
69.0107 0.245
69.0203 0.125
69.0299 0.229
69.0395 0.203
69.0491 0.286
69.0588 0.250
69.0684 0.266
69.0780 0.214
69.0876 0.219
69.0972 0.271
69.1068 0.208
69.1165 0.281
69.1261 0.208
69.1357 0.240
69.1453 0.203
69.1549 0.219
69.1645 0.224
69.1742 0.260
69.1838 0.219
69.1934 0.240
69.2030 0.182
69.2126 0.219
69.2223 0.250
69.2319 0.240
69.2415 0.188
69.2511 0.245
69.2607 0.245
69.2703 0.229
69.2800 0.156
69.2896 0.245
69.2992 0.193
69.3088 0.214
69.3184 0.250
69.3280 0.203
69.3377 0.255
69.3473 0.286
69.3569 0.255
69.3665 0.240
69.3761 0.208
69.3857 0.214
69.3954 0.203
69.4050 0.177
69.4146 0.214
69.4242 0.229
69.4338 0.208
69.4434 0.250
69.4531 0.198
69.4627 0.219
69.4723 0.229
69.4819 0.167
69.4915 0.229
69.5011 0.234
69.5108 0.234
69.5204 0.198
69.5300 0.182
69.5396 0.203
69.5492 0.177
69.5588 0.260
69.5685 0.214
69.5781 0.245
69.5877 0.224
69.5973 0.188
69.6069 0.177
69.6165 0.245
69.6262 0.219
69.6358 0.193
69.6454 0.250
69.6550 0.214
69.6646 0.161
69.6742 0.234
69.6839 0.224
69.6935 0.245
69.7031 0.219
69.7127 0.240
69.7223 0.224
69.7320 0.219
69.7416 0.234
69.7512 0.214
69.7608 0.214
69.7704 0.182
69.7800 0.229
69.7897 0.214
69.7993 0.146
69.8089 0.286
69.8185 0.182
69.8281 0.214
69.8377 0.188
69.8474 0.219
69.8570 0.224
69.8666 0.229
69.8762 0.224
69.8858 0.141
69.8954 0.234
69.9051 0.229
69.9147 0.203
69.9243 0.260
69.9339 0.234
69.9435 0.208
69.9531 0.219
69.9628 0.214
69.9724 0.292
69.9820 0.245
69.9916 0.198
70.0012 0.240
70.0108 0.208
