'Id: "" Comment: "" Operator: "Lab Manager" Anode: "Cu" Scantype: "Coupled TwoTheta/Theta" TimePerStep: "192" 
5.0000 6.615
5.0096 6.589
5.0192 6.896
5.0289 6.594
5.0385 6.417
5.0481 6.438
5.0577 6.526
5.0673 6.615
5.0769 6.318
5.0866 6.536
5.0962 6.391
5.1058 5.885
5.1154 6.333
5.1250 6.500
5.1346 6.438
5.1443 6.391
5.1539 6.281
5.1635 6.042
5.1731 6.339
5.1827 5.984
5.1923 6.568
5.2020 6.094
5.2116 5.984
5.2212 6.026
5.2308 6.276
5.2404 6.229
5.2500 5.849
5.2597 6.068
5.2693 5.969
5.2789 6.010
5.2885 5.943
5.2981 5.859
5.3077 5.979
5.3174 5.818
5.3270 6.036
5.3366 5.760
5.3462 5.740
5.3558 6.130
5.3654 5.964
5.3751 5.776
5.3847 6.016
5.3943 5.969
5.4039 5.844
5.4135 5.786
5.4231 5.714
5.4328 5.781
5.4424 5.922
5.4520 5.849
5.4616 5.896
5.4712 5.589
5.4808 5.708
5.4905 5.698
5.5001 5.792
5.5097 6.047
5.5193 5.453
5.5289 5.797
5.5386 5.724
5.5482 5.797
5.5578 5.661
5.5674 5.766
5.5770 5.474
5.5866 5.469
5.5963 5.656
5.6059 5.417
5.6155 5.448
5.6251 5.542
5.6347 5.865
5.6443 5.474
5.6540 5.448
5.6636 5.719
5.6732 5.599
5.6828 5.151
5.6924 5.474
5.7020 5.589
5.7117 5.323
5.7213 5.297
5.7309 5.641
5.7405 5.703
5.7501 5.323
5.7597 5.708
5.7694 5.313
5.7790 5.677
5.7886 5.443
5.7982 5.224
5.8078 5.208
5.8174 5.333
5.8271 5.234
5.8367 5.302
5.8463 5.328
5.8559 5.422
5.8655 5.380
5.8751 5.010
5.8848 5.214
5.8944 5.161
5.9040 5.047
5.9136 5.406
5.9232 5.286
5.9328 5.167
5.9425 5.255
5.9521 5.188
5.9617 5.286
5.9713 5.255
5.9809 4.906
5.9905 5.208
6.0002 5.578
6.0098 5.250
6.0194 5.135
6.0290 5.125
6.0386 4.969
6.0483 5.250
6.0579 4.839
6.0675 5.151
6.0771 5.005
6.0867 5.094
6.0963 4.849
6.1060 4.828
6.1156 5.089
6.1252 5.042
6.1348 5.005
6.1444 5.151
6.1540 5.203
6.1637 4.979
6.1733 4.807
6.1829 4.813
6.1925 4.979
6.2021 5.010
6.2117 4.734
6.2214 4.922
6.2310 4.651
6.2406 4.969
6.2502 4.974
6.2598 4.797
6.2694 5.135
6.2791 4.870
6.2887 4.833
6.2983 4.953
6.3079 4.844
6.3175 5.005
6.3271 4.948
6.3368 5.214
6.3464 4.802
6.3560 4.698
6.3656 4.906
6.3752 4.953
6.3848 4.875
6.3945 5.146
6.4041 4.984
6.4137 4.635
6.4233 4.724
6.4329 4.828
6.4425 4.589
6.4522 4.656
6.4618 4.401
6.4714 4.677
6.4810 4.760
6.4906 4.729
6.5003 4.766
6.5099 4.474
6.5195 4.672
6.5291 4.724
6.5387 4.813
6.5483 4.380
6.5580 4.484
6.5676 4.896
6.5772 4.828
6.5868 4.859
6.5964 4.547
6.6060 4.505
6.6157 4.995
6.6253 4.635
6.6349 4.286
6.6445 4.625
6.6541 4.693
6.6637 4.427
6.6734 4.490
6.6830 4.380
6.6926 4.271
6.7022 4.208
6.7118 4.432
6.7214 4.339
6.7311 4.427
6.7407 4.318
6.7503 4.417
6.7599 4.365
6.7695 4.453
6.7791 4.443
6.7888 4.500
6.7984 4.635
6.8080 4.510
6.8176 4.323
6.8272 4.406
6.8368 4.531
6.8465 4.146
6.8561 4.104
6.8657 4.406
6.8753 4.521
6.8849 4.484
6.8945 4.146
6.9042 4.089
6.9138 4.609
6.9234 4.198
6.9330 4.318
6.9426 4.234
6.9522 4.156
6.9619 4.438
6.9715 4.047
6.9811 4.323
6.9907 4.036
7.0003 4.240
7.0100 4.052
7.0196 4.036
7.0292 4.208
7.0388 4.135
7.0484 3.990
7.0580 4.047
7.0677 4.063
7.0773 3.875
7.0869 4.141
7.0965 3.885
7.1061 3.995
7.1157 4.031
7.1254 4.130
7.1350 3.906
7.1446 4.234
7.1542 4.203
7.1638 4.130
7.1734 4.047
7.1831 4.042
7.1927 4.042
7.2023 3.776
7.2119 4.073
7.2215 4.099
7.2311 4.104
7.2408 3.708
7.2504 3.969
7.2600 3.906
7.2696 4.031
7.2792 3.958
7.2888 3.870
7.2985 3.547
7.3081 3.677
7.3177 3.885
7.3273 3.833
7.3369 3.859
7.3465 3.828
7.3562 3.948
7.3658 4.063
7.3754 3.724
7.3850 4.115
7.3946 3.703
7.4042 3.807
7.4139 3.698
7.4235 3.703
7.4331 3.813
7.4427 3.865
7.4523 4.031
7.4619 3.885
7.4716 3.563
7.4812 3.885
7.4908 3.833
7.5004 3.792
7.5100 3.844
7.5197 3.849
7.5293 3.740
7.5389 3.854
7.5485 3.599
7.5581 3.693
7.5677 3.688
7.5774 3.755
7.5870 3.396
7.5966 3.661
7.6062 3.542
7.6158 3.589
7.6254 3.651
7.6351 3.526
7.6447 3.786
7.6543 3.385
7.6639 3.724
7.6735 3.620
7.6831 3.359
7.6928 3.661
7.7024 3.438
7.7120 3.375
7.7216 3.323
7.7312 3.583
7.7408 3.578
7.7505 3.547
7.7601 3.521
7.7697 3.578
7.7793 3.495
7.7889 3.422
7.7985 3.339
7.8082 3.557
7.8178 3.552
7.8274 3.276
7.8370 3.297
7.8466 3.380
7.8562 3.443
7.8659 3.198
7.8755 3.568
7.8851 3.297
7.8947 3.198
7.9043 3.297
7.9139 3.255
7.9236 3.349
7.9332 3.281
7.9428 3.479
7.9524 3.411
7.9620 3.609
7.9716 3.427
7.9813 3.172
7.9909 3.594
8.0005 3.219
8.0101 3.224
8.0197 3.094
8.0294 3.318
8.0390 3.396
8.0486 3.182
8.0582 3.354
8.0678 3.271
8.0774 3.448
8.0871 3.260
8.0967 3.240
8.1063 3.344
8.1159 3.156
8.1255 3.141
8.1351 3.615
8.1448 3.224
8.1544 3.339
8.1640 3.214
8.1736 3.094
8.1832 3.156
8.1928 2.938
8.2025 3.057
8.2121 2.896
8.2217 3.078
8.2313 3.182
8.2409 3.005
8.2505 2.958
8.2602 2.953
8.2698 3.063
8.2794 3.125
8.2890 2.964
8.2986 3.130
8.3082 3.099
8.3179 2.927
8.3275 3.005
8.3371 2.974
8.3467 3.234
8.3563 2.896
8.3659 2.953
8.3756 2.964
8.3852 2.922
8.3948 2.714
8.4044 2.964
8.4140 3.031
8.4236 2.688
8.4333 2.990
8.4429 2.948
8.4525 3.182
8.4621 2.964
8.4717 3.026
8.4813 2.974
8.4910 3.021
8.5006 2.745
8.5102 3.042
8.5198 3.042
8.5294 2.635
8.5391 2.984
8.5487 3.125
8.5583 2.844
8.5679 2.802
8.5775 2.766
8.5871 2.646
8.5968 2.813
8.6064 2.828
8.6160 2.740
8.6256 2.953
8.6352 2.693
8.6448 2.766
8.6545 2.760
8.6641 2.974
8.6737 2.552
8.6833 2.729
8.6929 2.625
8.7025 2.870
8.7122 2.573
8.7218 2.703
8.7314 2.771
8.7410 2.661
8.7506 2.849
8.7602 2.750
8.7699 2.698
8.7795 2.578
8.7891 2.536
8.7987 2.828
8.8083 2.661
8.8179 2.651
8.8276 2.745
8.8372 2.661
8.8468 2.740
8.8564 2.448
8.8660 2.490
8.8756 2.536
8.8853 2.547
8.8949 2.583
8.9045 2.427
8.9141 2.620
8.9237 2.682
8.9333 2.625
8.9430 2.682
8.9526 2.698
8.9622 2.609
8.9718 2.729
8.9814 2.448
8.9911 2.536
9.0007 2.432
9.0103 2.635
9.0199 2.453
9.0295 2.536
9.0391 2.406
9.0488 2.365
9.0584 2.521
9.0680 2.333
9.0776 2.354
9.0872 2.495
9.0968 2.568
9.1065 2.411
9.1161 2.484
9.1257 2.307
9.1353 2.417
9.1449 2.557
9.1545 2.380
9.1642 2.385
9.1738 2.547
9.1834 2.656
9.1930 2.318
9.2026 2.318
9.2122 2.177
9.2219 2.406
9.2315 2.370
9.2411 2.427
9.2507 2.484
9.2603 2.344
9.2699 2.406
9.2796 2.401
9.2892 2.313
9.2988 2.120
9.3084 2.089
9.3180 2.349
9.3276 2.339
9.3373 2.078
9.3469 2.370
9.3565 2.521
9.3661 2.297
9.3757 2.427
9.3853 2.203
9.3950 2.516
9.4046 2.193
9.4142 2.188
9.4238 2.208
9.4334 2.286
9.4430 2.240
9.4527 2.302
9.4623 2.193
9.4719 2.229
9.4815 2.250
9.4911 2.323
9.5008 2.214
9.5104 2.219
9.5200 2.302
9.5296 2.255
9.5392 2.130
9.5488 2.156
9.5585 2.130
9.5681 2.177
9.5777 2.036
9.5873 2.354
9.5969 2.089
9.6065 2.125
9.6162 1.870
9.6258 2.141
9.6354 2.005
9.6450 2.302
9.6546 2.057
9.6642 2.193
9.6739 1.880
9.6835 2.156
9.6931 2.203
9.7027 2.167
9.7123 2.182
9.7219 2.042
9.7316 2.042
9.7412 2.089
9.7508 1.979
9.7604 2.188
9.7700 2.099
9.7796 2.063
9.7893 1.943
9.7989 1.958
9.8085 1.984
9.8181 1.875
9.8277 1.969
9.8373 2.130
9.8470 2.000
9.8566 2.031
9.8662 2.010
9.8758 2.297
9.8854 1.927
9.8950 2.146
9.9047 1.964
9.9143 2.047
9.9239 1.969
9.9335 1.964
9.9431 1.958
9.9527 2.078
9.9624 1.885
9.9720 2.063
9.9816 1.964
9.9912 2.068
10.0008 2.094
10.0105 1.901
10.0201 2.031
10.0297 2.063
10.0393 2.047
10.0489 1.938
10.0585 2.005
10.0682 1.990
10.0778 1.875
10.0874 1.734
10.0970 2.026
10.1066 2.010
10.1162 2.188
10.1259 2.010
10.1355 1.938
10.1451 1.964
10.1547 2.109
10.1643 2.036
10.1739 2.026
10.1836 1.958
10.1932 1.984
10.2028 2.042
10.2124 1.813
10.2220 1.974
10.2316 1.911
10.2413 1.927
10.2509 1.880
10.2605 1.958
10.2701 1.828
10.2797 1.974
10.2893 2.031
10.2990 2.021
10.3086 1.792
10.3182 1.917
10.3278 1.906
10.3374 1.948
10.3470 1.745
10.3567 2.141
10.3663 1.750
10.3759 1.870
10.3855 1.958
10.3951 2.005
10.4047 2.036
10.4144 1.927
10.4240 2.016
10.4336 1.854
10.4432 2.005
10.4528 1.948
10.4624 1.828
10.4721 1.865
10.4817 1.786
10.4913 1.984
10.5009 1.760
10.5105 2.000
10.5202 1.865
10.5298 1.911
10.5394 1.906
10.5490 1.964
10.5586 1.948
10.5682 1.901
10.5779 1.901
10.5875 1.844
10.5971 1.839
10.6067 1.953
10.6163 1.849
10.6259 1.990
10.6356 1.984
10.6452 1.927
10.6548 1.984
10.6644 1.766
10.6740 1.828
10.6836 1.865
10.6933 1.865
10.7029 1.818
10.7125 1.891
10.7221 1.859
10.7317 1.797
10.7413 1.708
10.7510 2.073
10.7606 1.927
10.7702 1.802
10.7798 1.969
10.7894 1.995
10.7990 1.828
10.8087 2.021
10.8183 1.885
10.8279 2.083
10.8375 1.745
10.8471 1.849
10.8567 1.880
10.8664 1.719
10.8760 1.953
10.8856 1.870
10.8952 1.849
10.9048 2.000
10.9144 1.849
10.9241 1.943
10.9337 1.938
10.9433 1.833
10.9529 1.807
10.9625 1.813
10.9721 1.938
10.9818 1.995
10.9914 1.964
11.0010 1.979
11.0106 1.865
11.0202 1.698
11.0299 1.828
11.0395 1.615
11.0491 1.979
11.0587 1.807
11.0683 1.854
11.0779 1.740
11.0876 1.661
11.0972 1.807
11.1068 1.734
11.1164 1.875
11.1260 1.755
11.1356 1.745
11.1453 1.896
11.1549 1.922
11.1645 1.750
11.1741 1.625
11.1837 1.792
11.1933 1.672
11.2030 1.885
11.2126 1.953
11.2222 1.771
11.2318 1.865
11.2414 1.734
11.2510 1.703
11.2607 1.839
11.2703 1.594
11.2799 1.708
11.2895 1.849
11.2991 1.745
11.3087 1.797
11.3184 1.813
11.3280 1.911
11.3376 1.771
11.3472 1.922
11.3568 1.776
11.3664 1.844
11.3761 1.875
11.3857 1.943
11.3953 1.938
11.4049 1.906
11.4145 1.745
11.4241 1.880
11.4338 1.677
11.4434 1.766
11.4530 1.823
11.4626 1.818
11.4722 1.693
11.4819 1.885
11.4915 1.818
11.5011 1.750
11.5107 2.005
11.5203 1.802
11.5299 1.891
11.5396 1.865
11.5492 1.672
11.5588 1.833
11.5684 1.792
11.5780 1.781
11.5876 1.589
11.5973 1.896
11.6069 1.776
11.6165 1.823
11.6261 1.771
11.6357 1.724
11.6453 1.740
11.6550 1.771
11.6646 1.802
11.6742 1.589
11.6838 1.828
11.6934 1.729
11.7030 1.833
11.7127 1.776
11.7223 1.958
11.7319 1.583
11.7415 1.901
11.7511 1.760
11.7607 1.833
11.7704 1.766
11.7800 1.615
11.7896 1.948
11.7992 1.802
11.8088 1.854
11.8184 1.776
11.8281 1.656
11.8377 1.745
11.8473 1.766
11.8569 1.708
11.8665 1.521
11.8761 1.891
11.8858 1.724
11.8954 1.891
11.9050 1.766
11.9146 1.792
11.9242 1.922
11.9338 1.854
11.9435 1.786
11.9531 1.635
11.9627 1.615
11.9723 1.875
11.9819 1.703
11.9916 1.750
12.0012 1.776
12.0108 1.641
12.0204 1.635
12.0300 1.693
12.0396 1.859
12.0493 1.542
12.0589 1.526
12.0685 1.807
12.0781 1.880
12.0877 1.656
12.0973 1.755
12.1070 1.792
12.1166 1.807
12.1262 1.740
12.1358 1.693
12.1454 1.755
12.1550 1.573
12.1647 1.661
12.1743 1.682
12.1839 1.786
12.1935 1.708
12.2031 1.583
12.2127 1.646
12.2224 1.740
12.2320 1.667
12.2416 1.719
12.2512 1.771
12.2608 1.833
12.2704 1.411
12.2801 1.922
12.2897 1.740
12.2993 1.771
12.3089 1.698
12.3185 1.839
12.3281 1.651
12.3378 1.651
12.3474 1.724
12.3570 1.651
12.3666 1.729
12.3762 1.708
12.3858 1.641
12.3955 1.630
12.4051 1.672
12.4147 1.771
12.4243 1.818
12.4339 1.771
12.4435 1.641
12.4532 1.802
12.4628 1.740
12.4724 1.938
12.4820 1.859
12.4916 1.714
12.5013 1.609
12.5109 1.651
12.5205 1.828
12.5301 1.698
12.5397 1.661
12.5493 1.922
12.5590 1.557
12.5686 1.734
12.5782 1.734
12.5878 1.589
12.5974 1.688
12.6070 1.708
12.6167 1.635
12.6263 1.656
12.6359 1.698
12.6455 1.625
12.6551 1.708
12.6647 1.766
12.6744 1.656
12.6840 1.682
12.6936 1.917
12.7032 1.552
12.7128 1.906
12.7224 1.766
12.7321 1.656
12.7417 1.734
12.7513 1.729
12.7609 1.688
12.7705 1.875
12.7801 1.688
12.7898 1.630
12.7994 1.682
12.8090 1.729
12.8186 1.708
12.8282 1.698
12.8378 1.693
12.8475 1.547
12.8571 1.745
12.8667 1.484
12.8763 1.557
12.8859 1.521
12.8955 1.766
12.9052 1.724
12.9148 1.630
12.9244 1.693
12.9340 1.771
12.9436 1.714
12.9532 1.641
12.9629 1.672
12.9725 1.682
12.9821 1.516
12.9917 1.714
13.0013 1.740
13.0110 1.609
13.0206 1.651
13.0302 1.760
13.0398 1.734
13.0494 1.495
13.0590 1.771
13.0687 1.568
13.0783 1.526
13.0879 1.646
13.0975 1.688
13.1071 1.578
13.1167 1.734
13.1264 1.714
13.1360 1.776
13.1456 1.682
13.1552 1.630
13.1648 1.740
13.1744 1.656
13.1841 1.693
13.1937 1.828
13.2033 1.458
13.2129 1.615
13.2225 1.750
13.2321 1.651
13.2418 1.557
13.2514 1.714
13.2610 1.510
13.2706 1.641
13.2802 1.594
13.2898 1.807
13.2995 1.672
13.3091 1.661
13.3187 1.557
13.3283 1.505
13.3379 1.672
13.3475 1.786
13.3572 1.625
13.3668 1.651
13.3764 1.656
13.3860 1.589
13.3956 1.672
13.4052 1.688
13.4149 1.495
13.4245 1.729
13.4341 1.734
13.4437 1.583
13.4533 1.661
13.4630 1.474
13.4726 1.625
13.4822 1.719
13.4918 1.656
13.5014 1.661
13.5110 1.708
13.5207 1.615
13.5303 1.682
13.5399 1.734
13.5495 1.396
13.5591 1.635
13.5687 1.766
13.5784 1.526
13.5880 1.807
13.5976 1.667
13.6072 1.766
13.6168 1.625
13.6264 1.552
13.6361 1.677
13.6457 1.708
13.6553 1.688
13.6649 1.474
13.6745 1.693
13.6841 1.583
13.6938 1.750
13.7034 1.828
13.7130 1.656
13.7226 1.677
13.7322 1.594
13.7418 1.615
13.7515 1.563
13.7611 1.646
13.7707 1.740
13.7803 1.521
13.7899 1.802
13.7995 1.630
13.8092 1.729
13.8188 1.698
13.8284 1.849
13.8380 1.708
13.8476 1.682
13.8572 1.641
13.8669 1.781
13.8765 1.563
13.8861 1.708
13.8957 1.760
13.9053 1.552
13.9149 1.740
13.9246 1.677
13.9342 1.661
13.9438 1.667
13.9534 1.688
13.9630 1.698
13.9727 1.667
13.9823 1.578
13.9919 1.698
14.0015 1.599
14.0111 1.516
14.0207 1.563
14.0304 1.542
14.0400 1.729
14.0496 1.672
14.0592 1.630
14.0688 1.708
14.0784 1.661
14.0881 1.531
14.0977 1.719
14.1073 1.531
14.1169 1.672
14.1265 1.630
14.1361 1.661
14.1458 1.771
14.1554 1.875
14.1650 1.495
14.1746 1.630
14.1842 1.656
14.1938 1.698
14.2035 1.589
14.2131 1.672
14.2227 1.615
14.2323 1.635
14.2419 1.656
14.2515 1.740
14.2612 1.573
14.2708 1.672
14.2804 1.755
14.2900 1.792
14.2996 1.620
14.3092 1.521
14.3189 1.708
14.3285 1.656
14.3381 1.599
14.3477 1.609
14.3573 1.677
14.3669 1.625
14.3766 1.563
14.3862 1.573
14.3958 1.667
14.4054 1.656
14.4150 1.740
14.4246 1.531
14.4343 1.750
14.4439 1.688
14.4535 1.589
14.4631 1.703
14.4727 1.583
14.4824 1.760
14.4920 1.714
14.5016 1.625
14.5112 1.536
14.5208 1.719
14.5304 1.682
14.5401 1.578
14.5497 1.729
14.5593 1.693
14.5689 1.740
14.5785 1.578
14.5881 1.594
14.5978 1.771
14.6074 1.693
14.6170 1.693
14.6266 1.745
14.6362 1.828
14.6458 1.677
14.6555 1.807
14.6651 1.672
14.6747 1.625
14.6843 1.906
14.6939 1.583
14.7035 1.672
14.7132 1.604
14.7228 1.573
14.7324 1.734
14.7420 1.573
14.7516 1.667
14.7612 1.688
14.7709 1.693
14.7805 1.734
14.7901 1.578
14.7997 1.766
14.8093 1.760
14.8189 1.677
14.8286 1.703
14.8382 1.615
14.8478 1.729
14.8574 1.630
14.8670 1.859
14.8766 1.557
14.8863 1.760
14.8959 1.682
14.9055 1.724
14.9151 1.688
14.9247 1.719
14.9343 1.641
14.9440 1.594
14.9536 1.630
14.9632 1.734
14.9728 1.500
14.9824 1.563
14.9921 1.510
15.0017 1.505
15.0113 1.568
15.0209 1.615
15.0305 1.807
15.0401 1.828
15.0498 1.708
15.0594 1.766
15.0690 1.708
15.0786 1.677
15.0882 1.901
15.0978 1.583
15.1075 1.807
15.1171 1.625
15.1267 1.661
15.1363 1.714
15.1459 1.536
15.1555 1.698
15.1652 1.620
15.1748 1.849
15.1844 1.682
15.1940 1.646
15.2036 1.818
15.2132 1.724
15.2229 1.786
15.2325 1.589
15.2421 1.750
15.2517 1.651
15.2613 1.714
15.2709 1.594
15.2806 1.672
15.2902 1.641
15.2998 1.568
15.3094 1.781
15.3190 1.563
15.3286 1.656
15.3383 1.635
15.3479 1.578
15.3575 1.885
15.3671 1.646
15.3767 1.620
15.3863 1.656
15.3960 1.786
15.4056 1.849
15.4152 1.703
15.4248 1.844
15.4344 1.833
15.4440 1.708
15.4537 1.839
15.4633 1.630
15.4729 1.682
15.4825 1.599
15.4921 1.734
15.5018 1.807
15.5114 1.698
15.5210 1.802
15.5306 1.630
15.5402 1.880
15.5498 1.563
15.5595 1.792
15.5691 1.563
15.5787 1.714
15.5883 1.688
15.5979 1.797
15.6075 1.615
15.6172 1.729
15.6268 1.750
15.6364 1.604
15.6460 1.620
15.6556 1.740
15.6652 1.854
15.6749 1.760
15.6845 1.802
15.6941 1.750
15.7037 1.714
15.7133 1.792
15.7229 1.724
15.7326 1.719
15.7422 1.703
15.7518 1.729
15.7614 1.568
15.7710 1.719
15.7806 1.760
15.7903 1.667
15.7999 1.563
15.8095 1.740
15.8191 1.844
15.8287 1.646
15.8383 1.766
15.8480 1.760
15.8576 1.698
15.8672 1.651
15.8768 1.844
15.8864 1.760
15.8960 1.786
15.9057 1.760
15.9153 1.714
15.9249 1.578
15.9345 1.651
15.9441 1.792
15.9538 1.771
15.9634 1.792
15.9730 1.906
15.9826 1.625
15.9922 1.911
16.0018 1.656
16.0115 1.854
16.0211 1.714
16.0307 1.932
16.0403 1.646
16.0499 1.974
16.0595 1.896
16.0692 1.771
16.0788 1.745
16.0884 1.823
16.0980 1.776
16.1076 1.771
16.1172 1.797
16.1269 1.766
16.1365 1.693
16.1461 1.849
16.1557 1.880
16.1653 1.839
16.1749 1.661
16.1846 1.875
16.1942 1.797
16.2038 1.792
16.2134 1.625
16.2230 1.531
16.2326 1.729
16.2423 1.906
16.2519 1.750
16.2615 1.755
16.2711 1.990
16.2807 1.708
16.2903 1.865
16.3000 1.964
16.3096 1.693
16.3192 1.740
16.3288 1.953
16.3384 1.865
16.3480 1.698
16.3577 1.729
16.3673 1.917
16.3769 1.786
16.3865 1.630
16.3961 1.693
16.4057 1.635
16.4154 1.839
16.4250 1.599
16.4346 1.875
16.4442 1.953
16.4538 1.693
16.4635 1.677
16.4731 1.875
16.4827 1.865
16.4923 1.797
16.5019 1.786
16.5115 1.724
16.5212 1.844
16.5308 1.823
16.5404 1.755
16.5500 1.776
16.5596 1.891
16.5692 1.833
16.5789 1.901
16.5885 1.885
16.5981 1.823
16.6077 1.896
16.6173 1.911
16.6269 1.943
16.6366 1.990
16.6462 1.740
16.6558 1.672
16.6654 1.667
16.6750 1.792
16.6846 1.729
16.6943 1.771
16.7039 1.943
16.7135 1.854
16.7231 1.875
16.7327 1.964
16.7423 1.792
16.7520 1.870
16.7616 1.849
16.7712 1.802
16.7808 1.703
16.7904 1.974
16.8000 1.693
16.8097 2.005
16.8193 1.755
16.8289 2.063
16.8385 1.880
16.8481 1.865
16.8577 1.833
16.8674 1.667
16.8770 1.875
16.8866 1.901
16.8962 1.911
16.9058 1.818
16.9154 2.130
16.9251 1.891
16.9347 1.906
16.9443 2.099
16.9539 1.844
16.9635 1.875
16.9732 1.896
16.9828 1.938
16.9924 2.042
17.0020 1.875
17.0116 1.813
17.0212 1.823
17.0309 1.667
17.0405 1.802
17.0501 1.953
17.0597 1.844
17.0693 1.938
17.0789 1.854
17.0886 2.130
17.0982 1.818
17.1078 1.911
17.1174 2.031
17.1270 2.010
17.1366 1.734
17.1463 1.911
17.1559 2.000
17.1655 1.839
17.1751 1.885
17.1847 2.000
17.1943 1.979
17.2040 1.906
17.2136 2.057
17.2232 1.828
17.2328 1.932
17.2424 1.995
17.2520 1.958
17.2617 2.083
17.2713 2.005
17.2809 2.036
17.2905 2.104
17.3001 2.005
17.3097 1.854
17.3194 1.917
17.3290 1.969
17.3386 1.896
17.3482 1.745
17.3578 1.922
17.3674 2.167
17.3771 1.932
17.3867 2.234
17.3963 1.896
17.4059 1.958
17.4155 1.854
17.4251 2.104
17.4348 1.849
17.4444 2.052
17.4540 2.047
17.4636 1.844
17.4732 1.984
17.4829 2.057
17.4925 1.849
17.5021 2.198
17.5117 1.969
17.5213 1.714
17.5309 1.807
17.5406 2.161
17.5502 2.172
17.5598 2.120
17.5694 2.120
17.5790 1.943
17.5886 2.115
17.5983 2.042
17.6079 1.979
17.6175 2.083
17.6271 2.078
17.6367 2.089
17.6463 1.917
17.6560 2.203
17.6656 2.104
17.6752 2.047
17.6848 1.979
17.6944 1.875
17.7040 2.010
17.7137 1.870
17.7233 2.083
17.7329 1.943
17.7425 2.068
17.7521 2.120
17.7617 2.198
17.7714 1.953
17.7810 2.276
17.7906 2.182
17.8002 1.953
17.8098 2.078
17.8194 1.958
17.8291 2.240
17.8387 2.333
17.8483 2.109
17.8579 2.344
17.8675 2.125
17.8771 2.135
17.8868 2.161
17.8964 2.188
17.9060 2.219
17.9156 2.031
17.9252 2.135
17.9348 2.245
17.9445 2.130
17.9541 2.151
17.9637 2.151
17.9733 2.229
17.9829 2.125
17.9926 2.198
18.0022 2.104
18.0118 2.401
18.0214 2.260
18.0310 2.135
18.0406 2.177
18.0503 2.286
18.0599 2.068
18.0695 2.302
18.0791 2.229
18.0887 2.099
18.0983 2.156
18.1080 2.125
18.1176 2.047
18.1272 2.224
18.1368 2.521
18.1464 2.219
18.1560 2.281
18.1657 1.943
18.1753 2.359
18.1849 2.224
18.1945 1.958
18.2041 2.141
18.2137 2.234
18.2234 2.188
18.2330 2.286
18.2426 2.281
18.2522 2.063
18.2618 2.135
18.2714 2.177
18.2811 2.198
18.2907 2.365
18.3003 2.219
18.3099 2.240
18.3195 2.297
18.3291 2.146
18.3388 2.286
18.3484 2.281
18.3580 2.219
18.3676 2.286
18.3772 2.385
18.3868 2.333
18.3965 2.255
18.4061 2.349
18.4157 2.068
18.4253 2.167
18.4349 2.286
18.4446 2.188
18.4542 2.505
18.4638 2.135
18.4734 2.354
18.4830 2.260
18.4926 2.286
18.5023 2.302
18.5119 2.260
18.5215 2.208
18.5311 2.594
18.5407 2.333
18.5503 2.328
18.5600 2.365
18.5696 2.182
18.5792 2.573
18.5888 2.365
18.5984 2.500
18.6080 2.036
18.6177 2.365
18.6273 2.385
18.6369 2.266
18.6465 2.349
18.6561 2.229
18.6657 2.328
18.6754 2.526
18.6850 2.286
18.6946 2.469
18.7042 2.422
18.7138 2.417
18.7234 2.328
18.7331 2.260
18.7427 2.583
18.7523 2.302
18.7619 2.422
18.7715 2.234
18.7811 2.474
18.7908 2.245
18.8004 2.266
18.8100 2.474
18.8196 2.188
18.8292 2.297
18.8388 2.484
18.8485 2.526
18.8581 2.151
18.8677 2.349
18.8773 2.438
18.8869 2.401
18.8965 2.401
18.9062 2.328
18.9158 2.349
18.9254 2.583
18.9350 2.271
18.9446 2.573
18.9543 2.396
18.9639 2.307
18.9735 2.521
18.9831 2.531
18.9927 2.495
19.0023 2.255
19.0120 2.380
19.0216 2.385
19.0312 2.531
19.0408 2.302
19.0504 2.458
19.0600 2.370
19.0697 2.458
19.0793 2.568
19.0889 2.443
19.0985 2.396
19.1081 2.583
19.1177 2.531
19.1274 2.255
19.1370 2.422
19.1466 2.391
19.1562 2.604
19.1658 2.714
19.1754 2.552
19.1851 2.516
19.1947 2.734
19.2043 2.521
19.2139 2.635
19.2235 2.745
19.2331 2.563
19.2428 2.453
19.2524 2.578
19.2620 2.359
19.2716 2.578
19.2812 2.552
19.2908 2.630
19.3005 2.557
19.3101 2.490
19.3197 2.510
19.3293 2.490
19.3389 2.510
19.3485 2.578
19.3582 2.401
19.3678 2.719
19.3774 2.604
19.3870 2.396
19.3966 2.406
19.4062 2.500
19.4159 2.547
19.4255 2.630
19.4351 2.568
19.4447 2.401
19.4543 2.667
19.4640 2.604
19.4736 2.714
19.4832 2.573
19.4928 2.568
19.5024 2.677
19.5120 2.693
19.5217 2.740
19.5313 2.698
19.5409 2.854
19.5505 2.542
19.5601 2.651
19.5697 2.797
19.5794 2.479
19.5890 2.802
19.5986 2.635
19.6082 2.552
19.6178 2.615
19.6274 2.479
19.6371 2.427
19.6467 2.688
19.6563 2.646
19.6659 2.589
19.6755 2.573
19.6851 2.760
19.6948 2.609
19.7044 2.714
19.7140 2.729
19.7236 2.661
19.7332 2.719
19.7428 2.724
19.7525 2.568
19.7621 2.510
19.7717 2.781
19.7813 2.531
19.7909 2.615
19.8005 2.667
19.8102 2.526
19.8198 2.542
19.8294 2.641
19.8390 2.635
19.8486 2.479
19.8582 2.688
19.8679 2.708
19.8775 2.568
19.8871 2.865
19.8967 2.760
19.9063 2.719
19.9159 2.714
19.9256 2.661
19.9352 2.667
19.9448 2.542
19.9544 2.745
19.9640 2.656
19.9737 2.823
19.9833 2.667
19.9929 2.667
20.0025 2.557
20.0121 2.823
20.0217 2.927
20.0314 2.781
20.0410 2.818
20.0506 2.740
20.0602 2.547
20.0698 2.828
20.0794 2.766
20.0891 2.724
20.0987 2.755
20.1083 2.938
20.1179 2.729
20.1275 2.703
20.1371 3.042
20.1468 2.885
20.1564 2.615
20.1660 2.745
20.1756 2.797
20.1852 2.729
20.1948 2.703
20.2045 2.818
20.2141 2.849
20.2237 2.755
20.2333 2.521
20.2429 2.750
20.2525 2.719
20.2622 2.714
20.2718 2.635
20.2814 2.859
20.2910 2.573
20.3006 2.844
20.3102 2.813
20.3199 2.880
20.3295 2.589
20.3391 2.818
20.3487 2.589
20.3583 3.068
20.3679 2.896
20.3776 2.818
20.3872 2.740
20.3968 2.958
20.4064 2.766
20.4160 2.760
20.4256 2.547
20.4353 2.776
20.4449 2.958
20.4545 2.698
20.4641 2.984
20.4737 2.969
20.4834 2.953
20.4930 2.870
20.5026 2.896
20.5122 2.786
20.5218 2.776
20.5314 2.948
20.5411 2.880
20.5507 3.021
20.5603 2.839
20.5699 3.042
20.5795 3.036
20.5891 2.880
20.5988 2.688
20.6084 2.797
20.6180 2.885
20.6276 2.833
20.6372 3.026
20.6468 2.781
20.6565 3.000
20.6661 2.531
20.6757 2.984
20.6853 2.792
20.6949 2.839
20.7045 2.813
20.7142 3.021
20.7238 2.703
20.7334 2.859
20.7430 2.797
20.7526 3.031
20.7622 3.010
20.7719 2.839
20.7815 2.880
20.7911 2.833
20.8007 3.089
20.8103 3.078
20.8199 3.031
20.8296 2.875
20.8392 2.990
20.8488 2.766
20.8584 2.818
20.8680 3.083
20.8776 3.177
20.8873 2.969
20.8969 3.073
20.9065 2.870
20.9161 3.292
20.9257 2.906
20.9354 2.979
20.9450 2.885
20.9546 2.734
20.9642 2.943
20.9738 2.943
20.9834 2.979
20.9931 2.875
21.0027 2.875
21.0123 2.875
21.0219 2.667
21.0315 2.740
21.0411 2.974
21.0508 3.031
21.0604 3.172
21.0700 2.870
21.0796 3.182
21.0892 2.740
21.0988 2.880
21.1085 2.922
21.1181 2.917
21.1277 2.984
21.1373 3.068
21.1469 3.026
21.1565 3.104
21.1662 2.667
21.1758 2.932
21.1854 2.854
21.1950 2.943
21.2046 2.953
21.2142 2.885
21.2239 2.828
21.2335 2.750
21.2431 2.849
21.2527 3.099
21.2623 3.141
21.2719 2.922
21.2816 2.953
21.2912 3.036
21.3008 2.880
21.3104 3.083
21.3200 2.641
21.3296 3.016
21.3393 2.677
21.3489 2.797
21.3585 3.068
21.3681 2.979
21.3777 2.938
21.3873 2.797
21.3970 2.880
21.4066 2.755
21.4162 2.927
21.4258 3.109
21.4354 2.927
21.4451 2.906
21.4547 2.870
21.4643 2.734
21.4739 2.854
21.4835 2.682
21.4931 2.786
21.5028 2.891
21.5124 3.021
21.5220 2.875
21.5316 2.724
21.5412 2.932
21.5508 2.823
21.5605 2.943
21.5701 2.667
21.5797 2.849
21.5893 3.026
21.5989 2.911
21.6085 2.818
21.6182 2.964
21.6278 2.833
21.6374 2.813
21.6470 2.828
21.6566 2.745
21.6662 2.719
21.6759 2.880
21.6855 3.089
21.6951 2.948
21.7047 2.922
21.7143 2.865
21.7239 2.984
21.7336 3.063
21.7432 2.885
21.7528 2.922
21.7624 2.844
21.7720 2.964
21.7816 2.974
21.7913 3.031
21.8009 3.047
21.8105 3.000
21.8201 2.969
21.8297 3.109
21.8393 2.974
21.8490 3.135
21.8586 3.010
21.8682 3.047
21.8778 2.943
21.8874 2.948
21.8970 3.167
21.9067 3.104
21.9163 3.146
21.9259 3.099
21.9355 3.063
21.9451 2.969
21.9548 3.094
21.9644 2.911
21.9740 3.036
21.9836 3.229
21.9932 2.734
22.0028 2.969
22.0125 2.943
22.0221 2.932
22.0317 3.120
22.0413 3.026
22.0509 2.792
22.0605 2.911
22.0702 3.026
22.0798 2.844
22.0894 2.797
22.0990 2.776
22.1086 2.958
22.1182 2.786
22.1279 2.677
22.1375 2.792
22.1471 2.911
22.1567 2.823
22.1663 2.984
22.1759 2.870
22.1856 2.917
22.1952 2.734
22.2048 3.016
22.2144 2.839
22.2240 2.635
22.2336 3.016
22.2433 2.839
22.2529 2.698
22.2625 2.870
22.2721 2.891
22.2817 2.839
22.2913 2.844
22.3010 2.760
22.3106 2.646
22.3202 2.656
22.3298 2.859
22.3394 2.635
22.3490 2.693
22.3587 2.641
22.3683 2.781
22.3779 2.948
22.3875 2.891
22.3971 2.646
22.4067 2.703
22.4164 2.698
22.4260 2.714
22.4356 2.948
22.4452 2.693
22.4548 2.698
22.4645 2.885
22.4741 2.859
22.4837 2.802
22.4933 3.057
22.5029 2.656
22.5125 2.818
22.5222 2.583
22.5318 2.818
22.5414 2.547
22.5510 2.714
22.5606 2.792
22.5702 2.854
22.5799 2.609
22.5895 2.688
22.5991 2.823
22.6087 2.724
22.6183 2.568
22.6279 2.604
22.6376 2.573
22.6472 2.516
22.6568 2.714
22.6664 2.755
22.6760 2.818
22.6856 2.708
22.6953 2.703
22.7049 2.688
22.7145 2.714
22.7241 2.661
22.7337 2.724
22.7433 2.880
22.7530 2.786
22.7626 2.693
22.7722 2.438
22.7818 2.745
22.7914 2.677
22.8010 2.776
22.8107 2.698
22.8203 2.672
22.8299 2.641
22.8395 2.729
22.8491 2.719
22.8587 2.854
22.8684 2.750
22.8780 2.547
22.8876 2.521
22.8972 2.594
22.9068 2.568
22.9164 2.646
22.9261 2.568
22.9357 2.547
22.9453 2.609
22.9549 2.750
22.9645 2.807
22.9742 2.427
22.9838 2.594
22.9934 2.490
23.0030 2.646
23.0126 2.589
23.0222 2.594
23.0319 2.563
23.0415 2.651
23.0511 2.474
23.0607 2.531
23.0703 2.682
23.0799 2.630
23.0896 2.510
23.0992 2.568
23.1088 2.656
23.1184 2.677
23.1280 2.776
23.1376 2.734
23.1473 2.635
23.1569 2.563
23.1665 2.578
23.1761 2.682
23.1857 2.521
23.1953 2.500
23.2050 2.552
23.2146 2.693
23.2242 2.630
23.2338 2.385
23.2434 2.573
23.2530 2.490
23.2627 2.469
23.2723 2.448
23.2819 2.536
23.2915 2.714
23.3011 2.531
23.3107 2.479
23.3204 2.495
23.3300 2.698
23.3396 2.458
23.3492 2.599
23.3588 2.339
23.3684 2.620
23.3781 2.500
23.3877 2.443
23.3973 2.495
23.4069 2.635
23.4165 2.677
23.4262 2.641
23.4358 2.474
23.4454 2.677
23.4550 2.417
23.4646 2.568
23.4742 2.328
23.4839 2.458
23.4935 2.646
23.5031 2.500
23.5127 2.297
23.5223 2.458
23.5319 2.385
23.5416 2.448
23.5512 2.375
23.5608 2.323
23.5704 2.406
23.5800 2.536
23.5896 2.354
23.5993 2.583
23.6089 2.505
23.6185 2.323
23.6281 2.422
23.6377 2.500
23.6473 2.620
23.6570 2.193
23.6666 2.354
23.6762 2.443
23.6858 2.167
23.6954 2.354
23.7050 2.380
23.7147 2.370
23.7243 2.521
23.7339 2.510
23.7435 2.547
23.7531 2.438
23.7627 2.469
23.7724 2.240
23.7820 2.359
23.7916 2.307
23.8012 2.250
23.8108 2.281
23.8204 2.339
23.8301 2.172
23.8397 2.323
23.8493 2.521
23.8589 2.307
23.8685 2.495
23.8781 2.422
23.8878 2.500
23.8974 2.208
23.9070 2.401
23.9166 2.266
23.9262 2.313
23.9359 2.292
23.9455 2.542
23.9551 2.177
23.9647 2.417
23.9743 2.005
23.9839 2.318
23.9936 2.172
24.0032 2.365
24.0128 2.438
24.0224 2.500
24.0320 2.339
24.0416 2.260
24.0513 2.214
24.0609 2.240
24.0705 2.380
24.0801 2.333
24.0897 2.271
24.0993 2.323
24.1090 2.266
24.1186 2.391
24.1282 2.234
24.1378 2.229
24.1474 2.229
24.1570 2.302
24.1667 2.156
24.1763 2.292
24.1859 2.104
24.1955 2.255
24.2051 2.063
24.2147 2.125
24.2244 2.109
24.2340 2.318
24.2436 2.224
24.2532 2.250
24.2628 2.177
24.2724 2.281
24.2821 2.422
24.2917 2.276
24.3013 2.292
24.3109 2.427
24.3205 2.240
24.3301 2.344
24.3398 2.271
24.3494 2.130
24.3590 2.182
24.3686 2.365
24.3782 2.146
24.3878 2.151
24.3975 2.063
24.4071 2.151
24.4167 2.203
24.4263 2.292
24.4359 2.323
24.4456 2.047
24.4552 2.172
24.4648 2.083
24.4744 2.266
24.4840 2.057
24.4936 2.224
24.5033 2.151
24.5129 2.313
24.5225 2.073
24.5321 2.063
24.5417 2.156
24.5513 2.026
24.5610 2.219
24.5706 2.182
24.5802 2.167
24.5898 2.099
24.5994 2.177
24.6090 2.297
24.6187 2.073
24.6283 2.198
24.6379 2.182
24.6475 2.135
24.6571 2.068
24.6667 2.031
24.6764 2.141
24.6860 2.130
24.6956 2.146
24.7052 2.052
24.7148 1.964
24.7244 2.245
24.7341 1.948
24.7437 1.823
24.7533 1.932
24.7629 2.151
24.7725 2.031
24.7821 1.891
24.7918 1.979
24.8014 2.042
24.8110 2.250
24.8206 2.115
24.8302 2.219
24.8398 2.120
24.8495 2.177
24.8591 2.057
24.8687 2.078
24.8783 2.167
24.8879 2.104
24.8975 1.953
24.9072 2.125
24.9168 2.021
24.9264 2.000
24.9360 2.026
24.9456 1.927
24.9553 1.828
24.9649 2.031
24.9745 2.083
24.9841 2.005
24.9937 2.146
25.0033 2.141
25.0130 2.292
25.0226 2.120
25.0322 2.057
25.0418 2.115
25.0514 1.974
25.0610 1.891
25.0707 1.807
25.0803 1.854
25.0899 1.865
25.0995 1.995
25.1091 2.026
25.1187 1.844
25.1284 1.865
25.1380 2.063
25.1476 2.120
25.1572 1.849
25.1668 1.896
25.1764 1.849
25.1861 2.057
25.1957 1.938
25.2053 1.797
25.2149 1.974
25.2245 1.802
25.2341 1.880
25.2438 2.031
25.2534 2.125
25.2630 2.042
25.2726 1.891
25.2822 1.880
25.2918 2.052
25.3015 2.021
25.3111 2.021
25.3207 1.844
25.3303 1.995
25.3399 2.125
25.3495 2.021
25.3592 1.807
25.3688 1.833
25.3784 2.031
25.3880 1.948
25.3976 2.021
25.4073 1.854
25.4169 1.870
25.4265 1.786
25.4361 1.771
25.4457 1.750
25.4553 2.099
25.4650 1.828
25.4746 2.063
25.4842 1.875
25.4938 1.969
25.5034 1.813
25.5130 1.891
25.5227 1.828
25.5323 1.813
25.5419 1.969
25.5515 1.906
25.5611 1.953
25.5707 1.792
25.5804 1.688
25.5900 1.740
25.5996 1.760
25.6092 1.958
25.6188 1.948
25.6284 1.906
25.6381 1.948
25.6477 1.859
25.6573 2.000
25.6669 1.859
25.6765 1.802
25.6861 1.786
25.6958 1.833
25.7054 1.938
25.7150 1.781
25.7246 1.859
25.7342 1.875
25.7438 1.755
25.7535 1.797
25.7631 1.781
25.7727 1.844
25.7823 1.703
25.7919 1.641
25.8015 1.849
25.8112 1.964
25.8208 1.875
25.8304 1.677
25.8400 1.708
25.8496 1.609
25.8592 1.760
25.8689 1.823
25.8785 1.667
25.8881 1.729
25.8977 1.698
25.9073 1.958
25.9170 1.870
25.9266 1.578
25.9362 1.667
25.9458 1.891
25.9554 1.818
25.9650 1.641
25.9747 1.641
25.9843 1.797
25.9939 1.854
26.0035 1.813
26.0131 1.854
26.0227 1.906
26.0324 1.755
26.0420 1.922
26.0516 1.641
26.0612 1.682
26.0708 1.516
26.0804 1.776
26.0901 1.813
26.0997 1.490
26.1093 1.521
26.1189 1.729
26.1285 1.771
26.1381 1.708
26.1478 1.693
26.1574 1.693
26.1670 1.771
26.1766 1.604
26.1862 1.750
26.1958 1.688
26.2055 1.906
26.2151 1.859
26.2247 1.781
26.2343 1.734
26.2439 1.771
26.2535 1.677
26.2632 1.786
26.2728 1.688
26.2824 1.620
26.2920 1.719
26.3016 1.823
26.3112 1.661
26.3209 1.745
26.3305 1.708
26.3401 1.760
26.3497 1.479
26.3593 1.750
26.3689 1.802
26.3786 1.693
26.3882 1.646
26.3978 1.781
26.4074 1.766
26.4170 1.839
26.4267 1.688
26.4363 1.844
26.4459 1.688
26.4555 1.677
26.4651 1.599
26.4747 1.698
26.4844 1.698
26.4940 1.651
26.5036 1.589
26.5132 1.729
26.5228 1.578
26.5324 1.578
26.5421 1.604
26.5517 1.677
26.5613 1.719
26.5709 1.599
26.5805 1.594
26.5901 1.797
26.5998 1.802
26.6094 1.797
26.6190 1.693
26.6286 1.823
26.6382 1.766
26.6478 1.911
26.6575 1.620
26.6671 1.734
26.6767 1.677
26.6863 1.766
26.6959 1.771
26.7055 1.677
26.7152 1.776
26.7248 1.599
26.7344 1.630
26.7440 1.693
26.7536 1.547
26.7632 1.641
26.7729 1.641
26.7825 1.630
26.7921 1.604
26.8017 1.703
26.8113 1.453
26.8209 1.474
26.8306 1.542
26.8402 1.469
26.8498 1.422
26.8594 1.677
26.8690 1.750
26.8786 1.453
26.8883 1.719
26.8979 1.630
26.9075 1.495
26.9171 1.500
26.9267 1.500
26.9364 1.620
26.9460 1.432
26.9556 1.536
26.9652 1.495
26.9748 1.547
26.9844 1.365
26.9941 1.573
27.0037 1.693
27.0133 1.432
27.0229 1.432
27.0325 1.609
27.0421 1.516
27.0518 1.536
27.0614 1.521
27.0710 1.604
27.0806 1.370
27.0902 1.479
27.0998 1.573
27.1095 1.292
27.1191 1.500
27.1287 1.370
27.1383 1.542
27.1479 1.500
27.1575 1.438
27.1672 1.599
27.1768 1.474
27.1864 1.589
27.1960 1.542
27.2056 1.505
27.2152 1.344
27.2249 1.396
27.2345 1.516
27.2441 1.589
27.2537 1.458
27.2633 1.448
27.2729 1.505
27.2826 1.661
27.2922 1.411
27.3018 1.552
27.3114 1.495
27.3210 1.370
27.3306 1.401
27.3403 1.380
27.3499 1.458
27.3595 1.526
27.3691 1.693
27.3787 1.646
27.3883 1.260
27.3980 1.505
27.4076 1.339
27.4172 1.490
27.4268 1.438
27.4364 1.401
27.4461 1.359
27.4557 1.391
27.4653 1.432
27.4749 1.568
27.4845 1.458
27.4941 1.573
27.5038 1.547
27.5134 1.417
27.5230 1.286
27.5326 1.531
27.5422 1.391
27.5518 1.479
27.5615 1.380
27.5711 1.401
27.5807 1.240
27.5903 1.563
27.5999 1.385
27.6095 1.422
27.6192 1.495
27.6288 1.526
27.6384 1.271
27.6480 1.708
27.6576 1.276
27.6672 1.490
27.6769 1.370
27.6865 1.422
27.6961 1.495
27.7057 1.281
27.7153 1.469
27.7249 1.375
27.7346 1.365
27.7442 1.464
27.7538 1.318
27.7634 1.469
27.7730 1.448
27.7826 1.271
27.7923 1.406
27.8019 1.339
27.8115 1.547
27.8211 1.479
27.8307 1.339
27.8403 1.443
27.8500 1.396
27.8596 1.380
27.8692 1.370
27.8788 1.500
27.8884 1.344
27.8981 1.318
27.9077 1.458
27.9173 1.354
27.9269 1.307
27.9365 1.375
27.9461 1.411
27.9558 1.365
27.9654 1.427
27.9750 1.302
27.9846 1.479
27.9942 1.313
28.0038 1.479
28.0135 1.448
28.0231 1.266
28.0327 1.286
28.0423 1.318
28.0519 1.328
28.0615 1.474
28.0712 1.469
28.0808 1.406
28.0904 1.464
28.1000 1.474
28.1096 1.401
28.1192 1.255
28.1289 1.422
28.1385 1.589
28.1481 1.349
28.1577 1.156
28.1673 1.401
28.1769 1.464
28.1866 1.333
28.1962 1.479
28.2058 1.302
28.2154 1.422
28.2250 1.458
28.2346 1.229
28.2443 1.250
28.2539 1.552
28.2635 1.453
28.2731 1.354
28.2827 1.281
28.2923 1.359
28.3020 1.438
28.3116 1.391
28.3212 1.422
28.3308 1.375
28.3404 1.385
28.3500 1.380
28.3597 1.505
28.3693 1.245
28.3789 1.188
28.3885 1.438
28.3981 1.328
28.4078 1.349
28.4174 1.286
28.4270 1.349
28.4366 1.375
28.4462 1.432
28.4558 1.396
28.4655 1.354
28.4751 1.453
28.4847 1.422
28.4943 1.271
28.5039 1.359
28.5135 1.365
28.5232 1.214
28.5328 1.354
28.5424 1.292
28.5520 1.255
28.5616 1.260
28.5712 1.245
28.5809 1.193
28.5905 1.255
28.6001 1.260
28.6097 1.370
28.6193 1.297
28.6289 1.182
28.6386 1.380
28.6482 1.250
28.6578 1.359
28.6674 1.224
28.6770 1.234
28.6866 1.188
28.6963 1.141
28.7059 1.318
28.7155 1.234
28.7251 1.339
28.7347 1.292
28.7443 1.302
28.7540 1.234
28.7636 1.250
28.7732 1.391
28.7828 1.385
28.7924 1.125
28.8020 1.380
28.8117 1.266
28.8213 1.130
28.8309 1.146
28.8405 1.260
28.8501 1.198
28.8597 1.401
28.8694 1.188
28.8790 1.250
28.8886 1.229
28.8982 1.323
28.9078 1.219
28.9175 1.177
28.9271 1.333
28.9367 1.365
28.9463 1.208
28.9559 1.182
28.9655 1.203
28.9752 1.255
28.9848 1.271
28.9944 1.073
29.0040 1.333
29.0136 1.240
29.0232 1.177
29.0329 1.245
29.0425 1.234
29.0521 1.286
29.0617 1.193
29.0713 1.250
29.0809 1.328
29.0906 1.229
29.1002 1.089
29.1098 1.167
29.1194 1.188
29.1290 1.443
29.1386 1.286
29.1483 1.255
29.1579 1.255
29.1675 1.323
29.1771 1.375
29.1867 1.276
29.1963 1.057
29.2060 1.010
29.2156 1.339
29.2252 1.161
29.2348 1.135
29.2444 1.125
29.2540 1.208
29.2637 1.365
29.2733 1.167
29.2829 1.146
29.2925 1.151
29.3021 1.167
29.3117 1.234
29.3214 1.146
29.3310 1.276
29.3406 1.286
29.3502 1.286
29.3598 1.323
29.3694 1.276
29.3791 1.177
29.3887 1.099
29.3983 1.214
29.4079 1.094
29.4175 1.250
29.4272 1.260
29.4368 1.135
29.4464 1.203
29.4560 1.219
29.4656 1.193
29.4752 1.250
29.4849 1.161
29.4945 1.297
29.5041 1.224
29.5137 1.281
29.5233 1.089
29.5329 1.182
29.5426 1.151
29.5522 1.245
29.5618 1.177
29.5714 1.042
29.5810 1.182
29.5906 1.005
29.6003 1.146
29.6099 1.130
29.6195 1.094
29.6291 1.208
29.6387 1.130
29.6483 1.208
29.6580 1.146
29.6676 1.245
29.6772 1.229
29.6868 1.016
29.6964 1.276
29.7060 1.125
29.7157 1.005
29.7253 1.203
29.7349 1.151
29.7445 1.214
29.7541 1.063
29.7637 1.005
29.7734 1.198
29.7830 1.120
29.7926 1.276
29.8022 1.198
29.8118 1.229
29.8214 1.167
29.8311 1.078
29.8407 1.146
29.8503 1.172
29.8599 1.198
29.8695 1.000
29.8791 1.182
29.8888 1.073
29.8984 1.245
29.9080 1.026
29.9176 0.984
29.9272 1.005
29.9369 0.932
29.9465 1.161
29.9561 1.172
29.9657 1.120
29.9753 1.188
29.9849 1.089
29.9946 1.141
30.0042 1.042
30.0138 1.130
30.0234 1.167
30.0330 1.167
30.0426 1.099
30.0523 1.016
30.0619 1.021
30.0715 1.286
30.0811 1.229
30.0907 1.214
30.1003 1.146
30.1100 1.193
30.1196 1.161
30.1292 1.042
30.1388 1.010
30.1484 1.109
30.1580 0.969
30.1677 1.094
30.1773 1.109
30.1869 0.964
30.1965 1.052
30.2061 0.943
30.2157 1.109
30.2254 1.000
30.2350 1.031
30.2446 1.063
30.2542 1.089
30.2638 1.068
30.2734 1.115
30.2831 1.083
30.2927 1.141
30.3023 1.115
30.3119 1.188
30.3215 1.161
30.3311 0.995
30.3408 1.078
30.3504 1.172
30.3600 0.990
30.3696 1.073
30.3792 1.161
30.3889 1.135
30.3985 1.042
30.4081 1.005
30.4177 1.146
30.4273 1.083
30.4369 1.156
30.4466 1.146
30.4562 1.026
30.4658 1.036
30.4754 0.948
30.4850 1.182
30.4946 1.099
30.5043 1.021
30.5139 1.052
30.5235 1.016
30.5331 0.943
30.5427 1.234
30.5523 1.026
30.5620 1.000
30.5716 1.104
30.5812 1.109
30.5908 1.063
30.6004 1.068
30.6100 1.016
30.6197 1.120
30.6293 1.036
30.6389 1.151
30.6485 1.052
30.6581 1.120
30.6677 1.188
30.6774 1.151
30.6870 1.021
30.6966 1.151
30.7062 0.922
30.7158 0.995
30.7254 1.125
30.7351 1.094
30.7447 1.172
30.7543 1.078
30.7639 1.073
30.7735 1.172
30.7831 1.109
30.7928 1.073
30.8024 0.938
30.8120 0.974
30.8216 1.094
30.8312 1.016
30.8408 1.083
30.8505 1.104
30.8601 0.953
30.8697 1.125
30.8793 1.151
30.8889 1.026
30.8986 1.068
30.9082 1.063
30.9178 1.057
30.9274 1.073
30.9370 0.974
30.9466 0.859
30.9563 1.021
30.9659 1.120
30.9755 1.010
30.9851 0.938
30.9947 1.021
31.0043 1.151
31.0140 1.089
31.0236 1.063
31.0332 1.016
31.0428 1.021
31.0524 1.083
31.0620 0.938
31.0717 1.031
31.0813 0.948
31.0909 1.068
31.1005 1.057
31.1101 1.057
31.1197 1.026
31.1294 0.938
31.1390 1.016
31.1486 1.135
31.1582 0.964
31.1678 0.917
31.1774 0.953
31.1871 0.984
31.1967 0.943
31.2063 1.026
31.2159 0.979
31.2255 1.005
31.2351 1.021
31.2448 1.089
31.2544 1.193
31.2640 0.938
31.2736 1.026
31.2832 1.047
31.2928 0.984
31.3025 1.130
31.3121 1.005
31.3217 1.000
31.3313 1.141
31.3409 1.099
31.3505 1.089
31.3602 0.906
31.3698 0.943
31.3794 0.948
31.3890 0.943
31.3986 1.089
31.4083 1.161
31.4179 1.047
31.4275 1.042
31.4371 0.964
31.4467 0.922
31.4563 1.120
31.4660 1.083
31.4756 1.125
31.4852 1.047
31.4948 0.974
31.5044 1.021
31.5140 0.938
31.5237 1.083
31.5333 1.094
31.5429 0.906
31.5525 0.969
31.5621 1.000
31.5717 0.969
31.5814 0.917
31.5910 1.047
31.6006 0.953
31.6102 1.052
31.6198 0.969
31.6294 0.979
31.6391 0.995
31.6487 0.979
31.6583 1.078
31.6679 1.000
31.6775 0.990
31.6871 0.984
31.6968 1.016
31.7064 0.932
31.7160 1.120
31.7256 0.990
31.7352 1.083
31.7448 0.927
31.7545 0.979
31.7641 0.990
31.7737 1.042
31.7833 0.958
31.7929 1.031
31.8025 0.969
31.8122 0.969
31.8218 0.964
31.8314 1.177
31.8410 0.953
31.8506 1.078
31.8602 0.917
31.8699 1.052
31.8795 1.078
31.8891 0.927
31.8987 0.865
31.9083 1.010
31.9180 1.010
31.9276 0.901
31.9372 0.938
31.9468 0.932
31.9564 1.068
31.9660 0.984
31.9757 1.036
31.9853 1.000
31.9949 0.995
32.0045 1.057
32.0141 0.839
32.0237 0.974
32.0334 1.000
32.0430 0.979
32.0526 0.927
32.0622 0.885
32.0718 1.016
32.0814 1.057
32.0911 1.109
32.1007 0.948
32.1103 0.880
32.1199 0.813
32.1295 0.917
32.1391 1.016
32.1488 0.953
32.1584 0.948
32.1680 0.917
32.1776 0.990
32.1872 0.891
32.1968 0.969
32.2065 1.104
32.2161 1.042
32.2257 1.042
32.2353 0.938
32.2449 0.969
32.2545 0.958
32.2642 0.938
32.2738 0.844
32.2834 0.948
32.2930 0.917
32.3026 0.859
32.3122 1.010
32.3219 0.969
32.3315 0.938
32.3411 0.927
32.3507 0.828
32.3603 0.875
32.3699 0.859
32.3796 1.016
32.3892 0.849
32.3988 0.927
32.4084 0.875
32.4180 1.057
32.4277 1.036
32.4373 0.885
32.4469 0.818
32.4565 0.990
32.4661 0.807
32.4757 0.896
32.4854 1.005
32.4950 0.891
32.5046 0.891
32.5142 0.797
32.5238 0.964
32.5334 1.036
32.5431 0.807
32.5527 1.042
32.5623 1.031
32.5719 1.026
32.5815 0.896
32.5911 0.828
32.6008 0.943
32.6104 0.948
32.6200 1.047
32.6296 0.990
32.6392 0.943
32.6488 0.901
32.6585 0.891
32.6681 0.979
32.6777 0.901
32.6873 1.010
32.6969 0.807
32.7065 0.891
32.7162 0.906
32.7258 0.911
32.7354 0.901
32.7450 0.807
32.7546 0.932
32.7642 0.917
32.7739 0.953
32.7835 0.891
32.7931 0.880
32.8027 0.776
32.8123 0.932
32.8219 0.813
32.8316 1.026
32.8412 0.875
32.8508 0.995
32.8604 0.833
32.8700 0.927
32.8797 0.948
32.8893 0.948
32.8989 0.849
32.9085 0.896
32.9181 0.875
32.9277 0.854
32.9374 0.891
32.9470 0.807
32.9566 0.885
32.9662 0.922
32.9758 0.958
32.9854 0.995
32.9951 0.823
33.0047 0.833
33.0143 0.828
33.0239 0.974
33.0335 0.880
33.0431 0.870
33.0528 0.865
33.0624 0.870
33.0720 0.932
33.0816 0.984
33.0912 0.823
33.1008 0.880
33.1105 0.766
33.1201 0.833
33.1297 1.000
33.1393 0.958
33.1489 0.828
33.1585 0.922
33.1682 0.865
33.1778 0.927
33.1874 0.844
33.1970 0.792
33.2066 0.932
33.2162 0.880
33.2259 0.854
33.2355 0.891
33.2451 0.870
33.2547 0.901
33.2643 0.786
33.2739 0.896
33.2836 0.854
33.2932 0.932
33.3028 0.896
33.3124 0.927
33.3220 0.870
33.3316 0.839
33.3413 0.870
33.3509 0.880
33.3605 0.906
33.3701 0.885
33.3797 0.885
33.3894 0.828
33.3990 0.891
33.4086 1.010
33.4182 0.818
33.4278 0.953
33.4374 0.927
33.4471 0.948
33.4567 0.891
33.4663 0.771
33.4759 0.958
33.4855 0.870
33.4951 0.891
33.5048 0.724
33.5144 0.844
33.5240 0.917
33.5336 0.932
33.5432 0.964
33.5528 0.776
33.5625 0.990
33.5721 0.958
33.5817 0.859
33.5913 0.859
33.6009 1.026
33.6105 0.797
33.6202 0.833
33.6298 0.932
33.6394 0.969
33.6490 0.953
33.6586 0.906
33.6682 0.911
33.6779 0.844
33.6875 0.854
33.6971 0.891
33.7067 0.938
33.7163 0.922
33.7259 0.948
33.7356 0.870
33.7452 1.026
33.7548 0.974
33.7644 0.969
33.7740 0.958
33.7836 0.755
33.7933 0.797
33.8029 0.901
33.8125 0.927
33.8221 0.880
33.8317 0.922
33.8413 0.849
33.8510 0.938
33.8606 0.813
33.8702 0.818
33.8798 0.839
33.8894 0.932
33.8991 0.865
33.9087 0.849
33.9183 0.875
33.9279 0.990
33.9375 0.943
33.9471 0.870
33.9568 0.786
33.9664 0.802
33.9760 0.859
33.9856 0.875
33.9952 0.854
34.0048 0.724
34.0145 0.875
34.0241 0.802
34.0337 0.771
34.0433 0.807
34.0529 0.953
34.0625 0.870
34.0722 0.875
34.0818 0.766
34.0914 0.958
34.1010 0.927
34.1106 0.734
34.1202 0.823
34.1299 0.854
34.1395 0.755
34.1491 0.901
34.1587 0.760
34.1683 0.693
34.1779 0.818
34.1876 0.901
34.1972 0.906
34.2068 0.849
34.2164 0.854
34.2260 0.875
34.2356 0.792
34.2453 0.839
34.2549 0.922
34.2645 0.802
34.2741 0.849
34.2837 0.781
34.2933 0.755
34.3030 0.776
34.3126 0.880
34.3222 0.885
34.3318 0.813
34.3414 0.776
34.3510 0.818
34.3607 0.818
34.3703 0.760
34.3799 0.891
34.3895 0.859
34.3991 0.875
34.4088 0.719
34.4184 0.792
34.4280 0.927
34.4376 0.729
34.4472 0.823
34.4568 0.776
34.4665 0.781
34.4761 0.750
34.4857 0.786
34.4953 0.839
34.5049 0.745
34.5145 0.849
34.5242 0.760
34.5338 0.818
34.5434 1.021
34.5530 0.776
34.5626 0.771
34.5722 0.766
34.5819 0.750
34.5915 0.740
34.6011 0.859
34.6107 0.844
34.6203 0.974
34.6299 0.661
34.6396 0.729
34.6492 0.839
34.6588 0.813
34.6684 0.750
34.6780 0.833
34.6876 0.792
34.6973 0.698
34.7069 0.906
34.7165 0.906
34.7261 0.792
34.7357 0.729
34.7453 0.740
34.7550 0.833
34.7646 0.911
34.7742 0.906
34.7838 0.740
34.7934 0.740
34.8030 0.901
34.8127 0.802
34.8223 0.802
34.8319 0.917
34.8415 0.703
34.8511 0.786
34.8607 0.849
34.8704 0.927
34.8800 0.896
34.8896 0.828
34.8992 0.781
34.9088 0.776
34.9185 0.922
34.9281 0.771
34.9377 0.875
34.9473 0.714
34.9569 0.870
34.9665 0.755
34.9762 0.943
34.9858 0.828
34.9954 0.719
35.0050 0.828
35.0146 0.896
35.0242 0.818
35.0339 0.766
35.0435 0.750
35.0531 0.922
35.0627 0.661
35.0723 0.901
35.0819 0.839
35.0916 0.698
35.1012 0.911
35.1108 0.802
35.1204 0.823
35.1300 0.828
35.1396 0.896
35.1493 0.839
35.1589 0.708
35.1685 0.750
35.1781 0.823
35.1877 0.755
35.1973 0.745
35.2070 0.844
35.2166 0.807
35.2262 0.844
35.2358 0.698
35.2454 0.865
35.2550 0.714
35.2647 0.938
35.2743 0.792
35.2839 0.880
35.2935 0.865
35.3031 0.828
35.3127 0.729
35.3224 0.891
35.3320 0.859
35.3416 0.802
35.3512 0.906
35.3608 0.708
35.3705 0.938
35.3801 0.776
35.3897 0.818
35.3993 0.849
35.4089 0.911
35.4185 0.948
35.4282 0.813
35.4378 0.802
35.4474 0.865
35.4570 0.885
35.4666 0.807
35.4762 0.984
35.4859 0.885
35.4955 0.854
35.5051 0.807
35.5147 1.016
35.5243 0.766
35.5339 0.990
35.5436 1.036
35.5532 0.979
35.5628 1.120
35.5724 1.240
35.5820 1.156
35.5916 1.266
35.6013 1.474
35.6109 1.406
35.6205 1.531
35.6301 1.609
35.6397 1.828
35.6493 1.719
35.6590 1.536
35.6686 1.526
35.6782 1.505
35.6878 1.271
35.6974 1.359
35.7070 1.391
35.7167 1.323
35.7263 1.495
35.7359 1.396
35.7455 1.401
35.7551 1.229
35.7647 1.224
35.7744 1.146
35.7840 1.000
35.7936 0.896
35.8032 0.870
35.8128 1.005
35.8224 0.948
35.8321 0.859
35.8417 0.870
35.8513 0.875
35.8609 0.818
35.8705 0.823
35.8802 0.932
35.8898 0.714
35.8994 0.688
35.9090 0.865
35.9186 0.943
35.9282 0.813
35.9379 0.891
35.9475 0.802
35.9571 0.865
35.9667 0.839
35.9763 0.776
35.9859 0.766
35.9956 0.823
36.0052 0.714
36.0148 0.766
36.0244 0.714
36.0340 0.734
36.0436 0.891
36.0533 0.859
36.0629 0.828
36.0725 0.880
36.0821 0.797
36.0917 0.807
36.1013 0.891
36.1110 0.839
36.1206 0.891
36.1302 0.688
36.1398 0.786
36.1494 0.875
36.1590 0.760
36.1687 0.740
36.1783 0.760
36.1879 0.594
36.1975 0.750
36.2071 0.875
36.2167 0.964
36.2264 0.797
36.2360 0.766
36.2456 0.703
36.2552 0.698
36.2648 0.714
36.2744 0.792
36.2841 0.792
36.2937 0.760
36.3033 0.672
36.3129 0.630
36.3225 0.823
36.3321 0.776
36.3418 0.797
36.3514 0.776
36.3610 0.792
36.3706 0.885
36.3802 0.786
36.3899 0.677
36.3995 0.766
36.4091 0.766
36.4187 0.786
36.4283 0.760
36.4379 0.740
36.4476 0.802
36.4572 0.781
36.4668 0.776
36.4764 0.917
36.4860 0.771
36.4956 0.703
36.5053 0.693
36.5149 0.755
36.5245 0.708
36.5341 0.656
36.5437 0.776
36.5533 0.729
36.5630 0.714
36.5726 0.651
36.5822 0.651
36.5918 0.745
36.6014 0.745
36.6110 0.667
36.6207 0.724
36.6303 0.776
36.6399 0.719
36.6495 0.724
36.6591 0.635
36.6687 0.781
36.6784 0.802
36.6880 0.672
36.6976 0.714
36.7072 0.734
36.7168 0.646
36.7264 0.750
36.7361 0.755
36.7457 0.615
36.7553 0.776
36.7649 0.750
36.7745 0.786
36.7841 0.839
36.7938 0.651
36.8034 0.802
36.8130 0.625
36.8226 0.708
36.8322 0.677
36.8418 0.656
36.8515 0.703
36.8611 0.656
36.8707 0.714
36.8803 0.729
36.8899 0.719
36.8996 0.802
36.9092 0.740
36.9188 0.766
36.9284 0.688
36.9380 0.708
36.9476 0.682
36.9573 0.719
36.9669 0.646
36.9765 0.771
36.9861 0.807
36.9957 0.641
37.0053 0.703
37.0150 0.698
37.0246 0.698
37.0342 0.703
37.0438 0.734
37.0534 0.781
37.0630 0.688
37.0727 0.719
37.0823 0.516
37.0919 0.755
37.1015 0.688
37.1111 0.708
37.1207 0.719
37.1304 0.740
37.1400 0.797
37.1496 0.682
37.1592 0.630
37.1688 0.698
37.1784 0.714
37.1881 0.734
37.1977 0.672
37.2073 0.656
37.2169 0.802
37.2265 0.703
37.2361 0.635
37.2458 0.708
37.2554 0.625
37.2650 0.766
37.2746 0.646
37.2842 0.688
37.2938 0.677
37.3035 0.651
37.3131 0.661
37.3227 0.797
37.3323 0.786
37.3419 0.677
37.3516 0.609
37.3612 0.646
37.3708 0.693
37.3804 0.630
37.3900 0.703
37.3996 0.536
37.4093 0.698
37.4189 0.781
37.4285 0.693
37.4381 0.615
37.4477 0.609
37.4573 0.740
37.4670 0.661
37.4766 0.729
37.4862 0.682
37.4958 0.573
37.5054 0.734
37.5150 0.589
37.5247 0.682
37.5343 0.693
37.5439 0.583
37.5535 0.667
37.5631 0.635
37.5727 0.661
37.5824 0.531
37.5920 0.672
37.6016 0.609
37.6112 0.682
37.6208 0.693
37.6304 0.682
37.6401 0.677
37.6497 0.641
37.6593 0.656
37.6689 0.620
37.6785 0.682
37.6881 0.786
37.6978 0.729
37.7074 0.672
37.7170 0.672
37.7266 0.635
37.7362 0.714
37.7458 0.620
37.7555 0.635
37.7651 0.641
37.7747 0.677
37.7843 0.797
37.7939 0.677
37.8035 0.568
37.8132 0.766
37.8228 0.651
37.8324 0.688
37.8420 0.651
37.8516 0.536
37.8613 0.589
37.8709 0.740
37.8805 0.750
37.8901 0.734
37.8997 0.729
37.9093 0.646
37.9190 0.547
37.9286 0.656
37.9382 0.625
37.9478 0.604
37.9574 0.677
37.9670 0.646
37.9767 0.661
37.9863 0.625
37.9959 0.568
38.0055 0.583
38.0151 0.740
38.0247 0.589
38.0344 0.620
38.0440 0.630
38.0536 0.641
38.0632 0.641
38.0728 0.646
38.0824 0.641
38.0921 0.682
38.1017 0.641
38.1113 0.589
38.1209 0.672
38.1305 0.641
38.1401 0.792
38.1498 0.641
38.1594 0.729
38.1690 0.693
38.1786 0.589
38.1882 0.599
38.1978 0.677
38.2075 0.698
38.2171 0.630
38.2267 0.641
38.2363 0.672
38.2459 0.615
38.2555 0.646
38.2652 0.734
38.2748 0.646
38.2844 0.714
38.2940 0.589
38.3036 0.646
38.3132 0.552
38.3229 0.609
38.3325 0.641
38.3421 0.604
38.3517 0.630
38.3613 0.620
38.3710 0.583
38.3806 0.589
38.3902 0.656
38.3998 0.615
38.4094 0.698
38.4190 0.594
38.4287 0.620
38.4383 0.583
38.4479 0.656
38.4575 0.630
38.4671 0.781
38.4767 0.594
38.4864 0.589
38.4960 0.578
38.5056 0.656
38.5152 0.630
38.5248 0.703
38.5344 0.568
38.5441 0.724
38.5537 0.667
38.5633 0.594
38.5729 0.656
38.5825 0.479
38.5921 0.609
38.6018 0.573
38.6114 0.568
38.6210 0.552
38.6306 0.578
38.6402 0.568
38.6498 0.557
38.6595 0.641
38.6691 0.589
38.6787 0.599
38.6883 0.615
38.6979 0.646
38.7075 0.594
38.7172 0.557
38.7268 0.615
38.7364 0.594
38.7460 0.573
38.7556 0.641
38.7652 0.594
38.7749 0.578
38.7845 0.708
38.7941 0.625
38.8037 0.505
38.8133 0.557
38.8229 0.578
38.8326 0.635
38.8422 0.578
38.8518 0.542
38.8614 0.599
38.8710 0.542
38.8807 0.620
38.8903 0.510
38.8999 0.547
38.9095 0.698
38.9191 0.536
38.9287 0.536
38.9384 0.526
38.9480 0.589
38.9576 0.688
38.9672 0.604
38.9768 0.635
38.9864 0.531
38.9961 0.630
39.0057 0.620
39.0153 0.620
39.0249 0.500
39.0345 0.589
39.0441 0.635
39.0538 0.599
39.0634 0.615
39.0730 0.651
39.0826 0.625
39.0922 0.630
39.1018 0.583
39.1115 0.536
39.1211 0.625
39.1307 0.630
39.1403 0.755
39.1499 0.630
39.1595 0.495
39.1692 0.432
39.1788 0.521
39.1884 0.682
39.1980 0.646
39.2076 0.542
39.2172 0.589
39.2269 0.682
39.2365 0.552
39.2461 0.740
39.2557 0.656
39.2653 0.651
39.2749 0.625
39.2846 0.698
39.2942 0.609
39.3038 0.578
39.3134 0.615
39.3230 0.693
39.3326 0.531
39.3423 0.490
39.3519 0.615
39.3615 0.594
39.3711 0.724
39.3807 0.688
39.3904 0.719
39.4000 0.688
39.4096 0.672
39.4192 0.620
39.4288 0.672
39.4384 0.630
39.4481 0.688
39.4577 0.667
39.4673 0.432
39.4769 0.620
39.4865 0.656
39.4961 0.620
39.5058 0.464
39.5154 0.667
39.5250 0.604
39.5346 0.625
39.5442 0.589
39.5538 0.495
39.5635 0.589
39.5731 0.630
39.5827 0.641
39.5923 0.703
39.6019 0.672
39.6115 0.557
39.6212 0.578
39.6308 0.651
39.6404 0.641
39.6500 0.552
39.6596 0.563
39.6692 0.552
39.6789 0.531
39.6885 0.589
39.6981 0.552
39.7077 0.552
39.7173 0.557
39.7269 0.646
39.7366 0.531
39.7462 0.516
39.7558 0.557
39.7654 0.563
39.7750 0.677
39.7846 0.630
39.7943 0.651
39.8039 0.557
39.8135 0.599
39.8231 0.672
39.8327 0.521
39.8424 0.547
39.8520 0.599
39.8616 0.521
39.8712 0.563
39.8808 0.531
39.8904 0.625
39.9001 0.609
39.9097 0.542
39.9193 0.531
39.9289 0.536
39.9385 0.630
39.9481 0.589
39.9578 0.589
39.9674 0.526
39.9770 0.583
39.9866 0.672
39.9962 0.495
40.0058 0.599
40.0155 0.516
40.0251 0.526
40.0347 0.589
40.0443 0.484
40.0539 0.552
40.0635 0.552
40.0732 0.563
40.0828 0.656
40.0924 0.526
40.1020 0.542
40.1116 0.646
40.1212 0.521
40.1309 0.531
40.1405 0.521
40.1501 0.526
40.1597 0.563
40.1693 0.516
40.1789 0.573
40.1886 0.563
40.1982 0.552
40.2078 0.620
40.2174 0.458
40.2270 0.505
40.2366 0.542
40.2463 0.531
40.2559 0.536
40.2655 0.589
40.2751 0.531
40.2847 0.568
40.2943 0.490
40.3040 0.552
40.3136 0.609
40.3232 0.557
40.3328 0.500
40.3424 0.526
40.3521 0.599
40.3617 0.526
40.3713 0.568
40.3809 0.599
40.3905 0.625
40.4001 0.411
40.4098 0.568
40.4194 0.531
40.4290 0.573
40.4386 0.552
40.4482 0.573
40.4578 0.464
40.4675 0.536
40.4771 0.568
40.4867 0.516
40.4963 0.500
40.5059 0.594
40.5155 0.568
40.5252 0.448
40.5348 0.484
40.5444 0.615
40.5540 0.625
40.5636 0.547
40.5732 0.563
40.5829 0.656
40.5925 0.599
40.6021 0.516
40.6117 0.563
40.6213 0.542
40.6309 0.635
40.6406 0.578
40.6502 0.568
40.6598 0.521
40.6694 0.542
40.6790 0.521
40.6886 0.661
40.6983 0.536
40.7079 0.646
40.7175 0.646
40.7271 0.557
40.7367 0.516
40.7463 0.604
40.7560 0.464
40.7656 0.552
40.7752 0.510
40.7848 0.505
40.7944 0.578
40.8040 0.573
40.8137 0.411
40.8233 0.479
40.8329 0.531
40.8425 0.568
40.8521 0.583
40.8618 0.599
40.8714 0.552
40.8810 0.563
40.8906 0.526
40.9002 0.594
40.9098 0.505
40.9195 0.563
40.9291 0.651
40.9387 0.547
40.9483 0.469
40.9579 0.427
40.9675 0.573
40.9772 0.484
40.9868 0.547
40.9964 0.547
41.0060 0.568
41.0156 0.604
41.0252 0.693
41.0349 0.521
41.0445 0.516
41.0541 0.698
41.0637 0.568
41.0733 0.552
41.0829 0.516
41.0926 0.563
41.1022 0.474
41.1118 0.583
41.1214 0.510
41.1310 0.583
41.1406 0.479
41.1503 0.573
41.1599 0.573
41.1695 0.542
41.1791 0.505
41.1887 0.526
41.1983 0.552
41.2080 0.552
41.2176 0.547
41.2272 0.542
41.2368 0.599
41.2464 0.599
41.2560 0.573
41.2657 0.589
41.2753 0.667
41.2849 0.589
41.2945 0.578
41.3041 0.719
41.3137 0.635
41.3234 0.599
41.3330 0.625
41.3426 0.505
41.3522 0.563
41.3618 0.682
41.3715 0.620
41.3811 0.693
41.3907 0.677
41.4003 0.641
41.4099 0.693
41.4195 0.656
41.4292 0.609
41.4388 0.609
41.4484 0.599
41.4580 0.734
41.4676 0.573
41.4772 0.609
41.4869 0.698
41.4965 0.646
41.5061 0.604
41.5157 0.802
41.5253 0.589
41.5349 0.615
41.5446 0.516
41.5542 0.505
41.5638 0.615
41.5734 0.594
41.5830 0.620
41.5926 0.693
41.6023 0.578
41.6119 0.599
41.6215 0.615
41.6311 0.563
41.6407 0.620
41.6503 0.500
41.6600 0.516
41.6696 0.583
41.6792 0.500
41.6888 0.495
41.6984 0.516
41.7080 0.547
41.7177 0.620
41.7273 0.609
41.7369 0.594
41.7465 0.573
41.7561 0.547
41.7657 0.516
41.7754 0.536
41.7850 0.531
41.7946 0.578
41.8042 0.604
41.8138 0.573
41.8234 0.516
41.8331 0.552
41.8427 0.526
41.8523 0.734
41.8619 0.646
41.8715 0.510
41.8812 0.641
41.8908 0.526
41.9004 0.542
41.9100 0.521
41.9196 0.589
41.9292 0.469
41.9389 0.667
41.9485 0.531
41.9581 0.432
41.9677 0.526
41.9773 0.495
41.9869 0.536
41.9966 0.531
42.0062 0.490
42.0158 0.563
42.0254 0.656
42.0350 0.547
42.0446 0.495
42.0543 0.563
42.0639 0.578
42.0735 0.516
42.0831 0.505
42.0927 0.505
42.1023 0.594
42.1120 0.604
42.1216 0.552
42.1312 0.620
42.1408 0.599
42.1504 0.661
42.1600 0.542
42.1697 0.578
42.1793 0.552
42.1889 0.557
42.1985 0.547
42.2081 0.604
42.2177 0.448
42.2274 0.526
42.2370 0.510
42.2466 0.563
42.2562 0.615
42.2658 0.552
42.2754 0.505
42.2851 0.568
42.2947 0.568
42.3043 0.599
42.3139 0.557
42.3235 0.568
42.3332 0.599
42.3428 0.547
42.3524 0.604
42.3620 0.552
42.3716 0.609
42.3812 0.599
42.3909 0.641
42.4005 0.531
42.4101 0.661
42.4197 0.641
42.4293 0.641
42.4389 0.609
42.4486 0.594
42.4582 0.635
42.4678 0.583
42.4774 0.609
42.4870 0.651
42.4966 0.573
42.5063 0.583
42.5159 0.604
42.5255 0.620
42.5351 0.505
42.5447 0.620
42.5543 0.594
42.5640 0.464
42.5736 0.531
42.5832 0.604
42.5928 0.505
42.6024 0.521
42.6120 0.557
42.6217 0.635
42.6313 0.531
42.6409 0.604
42.6505 0.552
42.6601 0.594
42.6697 0.578
42.6794 0.615
42.6890 0.563
42.6986 0.536
42.7082 0.661
42.7178 0.604
42.7274 0.578
42.7371 0.557
42.7467 0.573
42.7563 0.536
42.7659 0.495
42.7755 0.542
42.7851 0.500
42.7948 0.505
42.8044 0.583
42.8140 0.568
42.8236 0.563
42.8332 0.531
42.8429 0.526
42.8525 0.542
42.8621 0.536
42.8717 0.521
42.8813 0.531
42.8909 0.646
42.9006 0.542
42.9102 0.521
42.9198 0.526
42.9294 0.563
42.9390 0.547
42.9486 0.578
42.9583 0.599
42.9679 0.615
42.9775 0.583
42.9871 0.536
42.9967 0.510
43.0063 0.578
43.0160 0.594
43.0256 0.557
43.0352 0.578
43.0448 0.490
43.0544 0.609
43.0640 0.563
43.0737 0.505
43.0833 0.526
43.0929 0.531
43.1025 0.500
43.1121 0.547
43.1217 0.510
43.1314 0.505
43.1410 0.604
43.1506 0.563
43.1602 0.594
43.1698 0.568
43.1794 0.589
43.1891 0.552
43.1987 0.563
43.2083 0.500
43.2179 0.557
43.2275 0.641
43.2371 0.510
43.2468 0.547
43.2564 0.552
43.2660 0.568
43.2756 0.542
43.2852 0.542
43.2948 0.594
43.3045 0.578
43.3141 0.521
43.3237 0.542
43.3333 0.469
43.3429 0.552
43.3526 0.620
43.3622 0.521
43.3718 0.620
43.3814 0.536
43.3910 0.641
43.4006 0.589
43.4103 0.589
43.4199 0.656
43.4295 0.583
43.4391 0.552
43.4487 0.563
43.4583 0.589
43.4680 0.557
43.4776 0.589
43.4872 0.526
43.4968 0.563
43.5064 0.443
43.5160 0.552
43.5257 0.635
43.5353 0.625
43.5449 0.563
43.5545 0.557
43.5641 0.604
43.5737 0.615
43.5834 0.578
43.5930 0.516
43.6026 0.495
43.6122 0.557
43.6218 0.531
43.6314 0.531
43.6411 0.594
43.6507 0.552
43.6603 0.526
43.6699 0.542
43.6795 0.521
43.6891 0.500
43.6988 0.688
43.7084 0.563
43.7180 0.568
43.7276 0.552
43.7372 0.474
43.7468 0.510
43.7565 0.479
43.7661 0.536
43.7757 0.531
43.7853 0.557
43.7949 0.599
43.8045 0.536
43.8142 0.458
43.8238 0.505
43.8334 0.479
43.8430 0.495
43.8526 0.469
43.8623 0.469
43.8719 0.589
43.8815 0.594
43.8911 0.547
43.9007 0.589
43.9103 0.583
43.9200 0.573
43.9296 0.625
43.9392 0.490
43.9488 0.589
43.9584 0.510
43.9680 0.510
43.9777 0.583
43.9873 0.625
43.9969 0.469
44.0065 0.531
44.0161 0.432
44.0257 0.510
44.0354 0.531
44.0450 0.583
44.0546 0.510
44.0642 0.594
44.0738 0.594
44.0834 0.589
44.0931 0.573
44.1027 0.552
44.1123 0.557
44.1219 0.557
44.1315 0.469
44.1411 0.604
44.1508 0.552
44.1604 0.531
44.1700 0.557
44.1796 0.599
44.1892 0.438
44.1988 0.609
44.2085 0.542
44.2181 0.589
44.2277 0.573
44.2373 0.536
44.2469 0.552
44.2565 0.516
44.2662 0.573
44.2758 0.552
44.2854 0.510
44.2950 0.604
44.3046 0.505
44.3142 0.568
44.3239 0.578
44.3335 0.578
44.3431 0.505
44.3527 0.526
44.3623 0.500
44.3720 0.521
44.3816 0.547
44.3912 0.495
44.4008 0.552
44.4104 0.464
44.4200 0.578
44.4297 0.464
44.4393 0.578
44.4489 0.521
44.4585 0.552
44.4681 0.625
44.4777 0.594
44.4874 0.583
44.4970 0.641
44.5066 0.531
44.5162 0.568
44.5258 0.547
44.5354 0.641
44.5451 0.484
44.5547 0.516
44.5643 0.490
44.5739 0.583
44.5835 0.547
44.5931 0.578
44.6028 0.568
44.6124 0.563
44.6220 0.526
44.6316 0.479
44.6412 0.521
44.6508 0.479
44.6605 0.583
44.6701 0.604
44.6797 0.568
44.6893 0.505
44.6989 0.589
44.7085 0.583
44.7182 0.505
44.7278 0.531
44.7374 0.510
44.7470 0.557
44.7566 0.552
44.7662 0.604
44.7759 0.635
44.7855 0.531
44.7951 0.578
44.8047 0.578
44.8143 0.563
44.8240 0.552
44.8336 0.578
44.8432 0.500
44.8528 0.490
44.8624 0.531
44.8720 0.568
44.8817 0.563
44.8913 0.526
44.9009 0.516
44.9105 0.443
44.9201 0.589
44.9297 0.635
44.9394 0.464
44.9490 0.542
44.9586 0.573
44.9682 0.385
44.9778 0.625
44.9874 0.573
44.9971 0.573
45.0067 0.526
45.0163 0.531
45.0259 0.510
45.0355 0.589
45.0451 0.620
45.0548 0.557
45.0644 0.521
45.0740 0.526
45.0836 0.557
45.0932 0.583
45.1028 0.599
45.1125 0.484
45.1221 0.542
45.1317 0.589
45.1413 0.552
45.1509 0.625
45.1605 0.474
45.1702 0.510
45.1798 0.578
45.1894 0.521
45.1990 0.484
45.2086 0.578
45.2182 0.505
45.2279 0.589
45.2375 0.568
45.2471 0.583
45.2567 0.578
45.2663 0.536
45.2759 0.573
45.2856 0.563
45.2952 0.495
45.3048 0.526
45.3144 0.589
45.3240 0.458
45.3337 0.688
45.3433 0.599
45.3529 0.516
45.3625 0.563
45.3721 0.510
45.3817 0.438
45.3914 0.604
45.4010 0.568
45.4106 0.479
45.4202 0.573
45.4298 0.521
45.4394 0.484
45.4491 0.542
45.4587 0.510
45.4683 0.589
45.4779 0.547
45.4875 0.474
45.4971 0.641
45.5068 0.443
45.5164 0.484
45.5260 0.583
45.5356 0.510
45.5452 0.620
45.5548 0.536
45.5645 0.557
45.5741 0.495
45.5837 0.542
45.5933 0.563
45.6029 0.547
45.6125 0.620
45.6222 0.464
45.6318 0.625
45.6414 0.521
45.6510 0.563
45.6606 0.484
45.6702 0.583
45.6799 0.620
45.6895 0.505
45.6991 0.547
45.7087 0.563
45.7183 0.490
45.7279 0.521
45.7376 0.651
45.7472 0.594
45.7568 0.547
45.7664 0.495
45.7760 0.651
45.7856 0.432
45.7953 0.516
45.8049 0.552
45.8145 0.500
45.8241 0.557
45.8337 0.625
45.8434 0.547
45.8530 0.557
45.8626 0.521
45.8722 0.583
45.8818 0.625
45.8914 0.536
45.9011 0.620
45.9107 0.615
45.9203 0.542
45.9299 0.521
45.9395 0.505
45.9491 0.495
45.9588 0.516
45.9684 0.557
45.9780 0.484
45.9876 0.505
45.9972 0.458
46.0068 0.568
46.0165 0.464
46.0261 0.552
46.0357 0.609
46.0453 0.411
46.0549 0.583
46.0645 0.573
46.0742 0.526
46.0838 0.573
46.0934 0.563
46.1030 0.422
46.1126 0.557
46.1222 0.552
46.1319 0.583
46.1415 0.589
46.1511 0.578
46.1607 0.594
46.1703 0.490
46.1799 0.479
46.1896 0.578
46.1992 0.495
46.2088 0.547
46.2184 0.625
46.2280 0.490
46.2376 0.531
46.2473 0.484
46.2569 0.521
46.2665 0.448
46.2761 0.521
46.2857 0.526
46.2953 0.536
46.3050 0.443
46.3146 0.427
46.3242 0.557
46.3338 0.625
46.3434 0.417
46.3531 0.469
46.3627 0.604
46.3723 0.542
46.3819 0.536
46.3915 0.542
46.4011 0.542
46.4108 0.542
46.4204 0.516
46.4300 0.464
46.4396 0.625
46.4492 0.641
46.4588 0.531
46.4685 0.469
46.4781 0.432
46.4877 0.495
46.4973 0.510
46.5069 0.505
46.5165 0.516
46.5262 0.495
46.5358 0.448
46.5454 0.604
46.5550 0.510
46.5646 0.531
46.5742 0.536
46.5839 0.526
46.5935 0.495
46.6031 0.510
46.6127 0.370
46.6223 0.516
46.6319 0.557
46.6416 0.557
46.6512 0.516
46.6608 0.490
46.6704 0.479
46.6800 0.542
46.6896 0.453
46.6993 0.609
46.7089 0.516
46.7185 0.505
46.7281 0.609
46.7377 0.510
46.7473 0.568
46.7570 0.542
46.7666 0.536
46.7762 0.521
46.7858 0.464
46.7954 0.521
46.8050 0.563
46.8147 0.484
46.8243 0.557
46.8339 0.505
46.8435 0.594
46.8531 0.568
46.8628 0.578
46.8724 0.443
46.8820 0.542
46.8916 0.484
46.9012 0.573
46.9108 0.594
46.9205 0.458
46.9301 0.542
46.9397 0.609
46.9493 0.510
46.9589 0.531
46.9685 0.516
46.9782 0.563
46.9878 0.573
46.9974 0.536
47.0070 0.667
47.0166 0.521
47.0262 0.500
47.0359 0.490
47.0455 0.552
47.0551 0.573
47.0647 0.635
47.0743 0.552
47.0839 0.448
47.0936 0.547
47.1032 0.578
47.1128 0.552
47.1224 0.578
47.1320 0.521
47.1416 0.458
47.1513 0.609
47.1609 0.500
47.1705 0.474
47.1801 0.505
47.1897 0.547
47.1993 0.521
47.2090 0.526
47.2186 0.594
47.2282 0.542
47.2378 0.630
47.2474 0.563
47.2570 0.542
47.2667 0.552
47.2763 0.578
47.2859 0.578
47.2955 0.510
47.3051 0.531
47.3148 0.625
47.3244 0.573
47.3340 0.557
47.3436 0.526
47.3532 0.526
47.3628 0.526
47.3725 0.443
47.3821 0.620
47.3917 0.589
47.4013 0.568
47.4109 0.516
47.4205 0.573
47.4302 0.573
47.4398 0.589
47.4494 0.505
47.4590 0.500
47.4686 0.557
47.4782 0.568
47.4879 0.531
47.4975 0.547
47.5071 0.500
47.5167 0.557
47.5263 0.505
47.5359 0.573
47.5456 0.573
47.5552 0.484
47.5648 0.589
47.5744 0.521
47.5840 0.563
47.5936 0.417
47.6033 0.630
47.6129 0.510
47.6225 0.479
47.6321 0.594
47.6417 0.438
47.6513 0.516
47.6610 0.474
47.6706 0.568
47.6802 0.510
47.6898 0.542
47.6994 0.547
47.7090 0.542
47.7187 0.552
47.7283 0.474
47.7379 0.510
47.7475 0.516
47.7571 0.521
47.7667 0.443
47.7764 0.500
47.7860 0.453
47.7956 0.536
47.8052 0.510
47.8148 0.479
47.8245 0.609
47.8341 0.526
47.8437 0.563
47.8533 0.531
47.8629 0.526
47.8725 0.474
47.8822 0.510
47.8918 0.453
47.9014 0.521
47.9110 0.432
47.9206 0.474
47.9302 0.490
47.9399 0.609
47.9495 0.500
47.9591 0.516
47.9687 0.490
47.9783 0.469
47.9879 0.505
47.9976 0.510
48.0072 0.604
48.0168 0.531
48.0264 0.500
48.0360 0.521
48.0456 0.578
48.0553 0.604
48.0649 0.563
48.0745 0.443
48.0841 0.516
48.0937 0.547
48.1033 0.594
48.1130 0.526
48.1226 0.458
48.1322 0.438
48.1418 0.542
48.1514 0.563
48.1610 0.484
48.1707 0.521
48.1803 0.573
48.1899 0.510
48.1995 0.469
48.2091 0.651
48.2187 0.552
48.2284 0.458
48.2380 0.542
48.2476 0.443
48.2572 0.531
48.2668 0.563
48.2764 0.557
48.2861 0.542
48.2957 0.536
48.3053 0.578
48.3149 0.531
48.3245 0.484
48.3342 0.578
48.3438 0.484
48.3534 0.557
48.3630 0.552
48.3726 0.422
48.3822 0.521
48.3919 0.583
48.4015 0.458
48.4111 0.516
48.4207 0.573
48.4303 0.547
48.4399 0.490
48.4496 0.474
48.4592 0.521
48.4688 0.422
48.4784 0.547
48.4880 0.536
48.4976 0.557
48.5073 0.479
48.5169 0.516
48.5265 0.531
48.5361 0.526
48.5457 0.474
48.5553 0.521
48.5650 0.568
48.5746 0.495
48.5842 0.474
48.5938 0.500
48.6034 0.547
48.6130 0.490
48.6227 0.521
48.6323 0.552
48.6419 0.505
48.6515 0.464
48.6611 0.531
48.6707 0.526
48.6804 0.464
48.6900 0.542
48.6996 0.427
48.7092 0.536
48.7188 0.547
48.7284 0.505
48.7381 0.521
48.7477 0.479
48.7573 0.521
48.7669 0.500
48.7765 0.464
48.7861 0.557
48.7958 0.495
48.8054 0.380
48.8150 0.557
48.8246 0.505
48.8342 0.542
48.8439 0.469
48.8535 0.359
48.8631 0.417
48.8727 0.427
48.8823 0.516
48.8919 0.542
48.9016 0.547
48.9112 0.479
48.9208 0.490
48.9304 0.464
48.9400 0.516
48.9496 0.484
48.9593 0.505
48.9689 0.448
48.9785 0.458
48.9881 0.479
48.9977 0.557
49.0073 0.521
49.0170 0.490
49.0266 0.505
49.0362 0.474
49.0458 0.453
49.0554 0.495
49.0650 0.438
49.0747 0.510
49.0843 0.479
49.0939 0.578
49.1035 0.521
49.1131 0.500
49.1227 0.427
49.1324 0.495
49.1420 0.427
49.1516 0.432
49.1612 0.505
49.1708 0.521
49.1804 0.484
49.1901 0.521
49.1997 0.500
49.2093 0.526
49.2189 0.547
49.2285 0.453
49.2381 0.542
49.2478 0.495
49.2574 0.474
49.2670 0.453
49.2766 0.578
49.2862 0.438
49.2959 0.458
49.3055 0.469
49.3151 0.505
49.3247 0.469
49.3343 0.495
49.3439 0.563
49.3536 0.510
49.3632 0.422
49.3728 0.490
49.3824 0.458
49.3920 0.552
49.4016 0.563
49.4113 0.500
49.4209 0.542
49.4305 0.484
49.4401 0.516
49.4497 0.505
49.4593 0.469
49.4690 0.474
49.4786 0.490
49.4882 0.464
49.4978 0.568
49.5074 0.474
49.5170 0.484
49.5267 0.505
49.5363 0.490
49.5459 0.516
49.5555 0.469
49.5651 0.510
49.5747 0.432
49.5844 0.510
49.5940 0.453
49.6036 0.547
49.6132 0.531
49.6228 0.526
49.6324 0.542
49.6421 0.458
49.6517 0.469
49.6613 0.490
49.6709 0.552
49.6805 0.458
49.6901 0.490
49.6998 0.479
49.7094 0.469
49.7190 0.516
49.7286 0.536
49.7382 0.417
49.7478 0.557
49.7575 0.438
49.7671 0.458
49.7767 0.490
49.7863 0.490
49.7959 0.552
49.8056 0.443
49.8152 0.552
49.8248 0.531
49.8344 0.458
49.8440 0.516
49.8536 0.557
49.8633 0.573
49.8729 0.516
49.8825 0.443
49.8921 0.510
49.9017 0.563
49.9113 0.563
49.9210 0.599
49.9306 0.438
49.9402 0.458
49.9498 0.479
49.9594 0.609
49.9690 0.385
49.9787 0.458
49.9883 0.500
49.9979 0.484
50.0075 0.422
50.0171 0.521
50.0267 0.510
50.0364 0.552
50.0460 0.495
50.0556 0.469
50.0652 0.531
50.0748 0.505
50.0844 0.448
50.0941 0.531
50.1037 0.510
50.1133 0.474
50.1229 0.599
50.1325 0.422
50.1421 0.516
50.1518 0.453
50.1614 0.521
50.1710 0.438
50.1806 0.583
50.1902 0.490
50.1998 0.552
50.2095 0.568
50.2191 0.505
50.2287 0.516
50.2383 0.432
50.2479 0.417
50.2575 0.568
50.2672 0.542
50.2768 0.484
50.2864 0.526
50.2960 0.521
50.3056 0.432
50.3153 0.385
50.3249 0.542
50.3345 0.500
50.3441 0.438
50.3537 0.427
50.3633 0.427
50.3730 0.552
50.3826 0.521
50.3922 0.448
50.4018 0.500
50.4114 0.474
50.4210 0.474
50.4307 0.526
50.4403 0.526
50.4499 0.443
50.4595 0.505
50.4691 0.458
50.4787 0.552
50.4884 0.432
50.4980 0.516
50.5076 0.469
50.5172 0.510
50.5268 0.474
50.5364 0.469
50.5461 0.542
50.5557 0.391
50.5653 0.484
50.5749 0.495
50.5845 0.443
50.5941 0.406
50.6038 0.583
50.6134 0.469
50.6230 0.401
50.6326 0.599
50.6422 0.490
50.6518 0.464
50.6615 0.510
50.6711 0.422
50.6807 0.542
50.6903 0.484
50.6999 0.510
50.7095 0.427
50.7192 0.469
50.7288 0.531
50.7384 0.490
50.7480 0.521
50.7576 0.547
50.7672 0.411
50.7769 0.484
50.7865 0.583
50.7961 0.474
50.8057 0.464
50.8153 0.474
50.8250 0.568
50.8346 0.547
50.8442 0.484
50.8538 0.469
50.8634 0.490
50.8730 0.370
50.8827 0.401
50.8923 0.516
50.9019 0.469
50.9115 0.380
50.9211 0.453
50.9307 0.547
50.9404 0.510
50.9500 0.490
50.9596 0.438
50.9692 0.427
50.9788 0.516
50.9884 0.563
50.9981 0.510
51.0077 0.479
51.0173 0.536
51.0269 0.464
51.0365 0.516
51.0461 0.516
51.0558 0.500
51.0654 0.484
51.0750 0.380
51.0846 0.438
51.0942 0.542
51.1038 0.536
51.1135 0.448
51.1231 0.432
51.1327 0.365
51.1423 0.464
51.1519 0.427
51.1615 0.490
51.1712 0.563
51.1808 0.438
51.1904 0.427
51.2000 0.510
51.2096 0.510
51.2192 0.484
51.2289 0.526
51.2385 0.552
51.2481 0.479
51.2577 0.438
51.2673 0.469
51.2769 0.552
51.2866 0.516
51.2962 0.495
51.3058 0.594
51.3154 0.484
51.3250 0.438
51.3347 0.526
51.3443 0.458
51.3539 0.510
51.3635 0.516
51.3731 0.453
51.3827 0.516
51.3924 0.516
51.4020 0.505
51.4116 0.469
51.4212 0.516
51.4308 0.438
51.4404 0.484
51.4501 0.490
51.4597 0.521
51.4693 0.568
51.4789 0.495
51.4885 0.438
51.4981 0.474
51.5078 0.500
51.5174 0.406
51.5270 0.536
51.5366 0.557
51.5462 0.438
51.5558 0.479
51.5655 0.458
51.5751 0.536
51.5847 0.484
51.5943 0.411
51.6039 0.484
51.6135 0.505
51.6232 0.490
51.6328 0.495
51.6424 0.427
51.6520 0.448
51.6616 0.495
51.6712 0.344
51.6809 0.464
51.6905 0.552
51.7001 0.484
51.7097 0.453
51.7193 0.432
51.7289 0.500
51.7386 0.484
51.7482 0.474
51.7578 0.505
51.7674 0.464
51.7770 0.443
51.7867 0.490
51.7963 0.365
51.8059 0.526
51.8155 0.427
51.8251 0.427
51.8347 0.547
51.8444 0.484
51.8540 0.464
51.8636 0.484
51.8732 0.490
51.8828 0.510
51.8924 0.490
51.9021 0.422
51.9117 0.365
51.9213 0.500
51.9309 0.526
51.9405 0.453
51.9501 0.479
51.9598 0.531
51.9694 0.443
51.9790 0.453
51.9886 0.505
51.9982 0.563
52.0078 0.448
52.0175 0.500
52.0271 0.406
52.0367 0.490
52.0463 0.464
52.0559 0.615
52.0655 0.495
52.0752 0.406
52.0848 0.422
52.0944 0.448
52.1040 0.422
52.1136 0.427
52.1232 0.500
52.1329 0.427
52.1425 0.479
52.1521 0.500
52.1617 0.411
52.1713 0.438
52.1809 0.474
52.1906 0.422
52.2002 0.458
52.2098 0.479
52.2194 0.432
52.2290 0.490
52.2386 0.495
52.2483 0.484
52.2579 0.490
52.2675 0.484
52.2771 0.443
52.2867 0.458
52.2964 0.417
52.3060 0.464
52.3156 0.500
52.3252 0.401
52.3348 0.464
52.3444 0.484
52.3541 0.484
52.3637 0.422
52.3733 0.505
52.3829 0.406
52.3925 0.391
52.4021 0.521
52.4118 0.385
52.4214 0.474
52.4310 0.422
52.4406 0.604
52.4502 0.453
52.4598 0.469
52.4695 0.406
52.4791 0.432
52.4887 0.417
52.4983 0.516
52.5079 0.516
52.5175 0.448
52.5272 0.578
52.5368 0.542
52.5464 0.385
52.5560 0.484
52.5656 0.427
52.5752 0.484
52.5849 0.458
52.5945 0.495
52.6041 0.495
52.6137 0.474
52.6233 0.417
52.6329 0.500
52.6426 0.552
52.6522 0.406
52.6618 0.458
52.6714 0.484
52.6810 0.500
52.6906 0.495
52.7003 0.521
52.7099 0.438
52.7195 0.510
52.7291 0.453
52.7387 0.448
52.7483 0.469
52.7580 0.510
52.7676 0.469
52.7772 0.589
52.7868 0.510
52.7964 0.531
52.8061 0.510
52.8157 0.464
52.8253 0.406
52.8349 0.536
52.8445 0.448
52.8541 0.464
52.8638 0.474
52.8734 0.531
52.8830 0.505
52.8926 0.484
52.9022 0.578
52.9118 0.578
52.9215 0.453
52.9311 0.417
52.9407 0.490
52.9503 0.495
52.9599 0.406
52.9695 0.521
52.9792 0.380
52.9888 0.484
52.9984 0.599
53.0080 0.354
53.0176 0.417
53.0272 0.505
53.0369 0.469
53.0465 0.443
53.0561 0.438
53.0657 0.380
53.0753 0.464
53.0849 0.526
53.0946 0.490
53.1042 0.401
53.1138 0.474
53.1234 0.557
53.1330 0.479
53.1426 0.453
53.1523 0.479
53.1619 0.500
53.1715 0.495
53.1811 0.411
53.1907 0.521
53.2003 0.396
53.2100 0.417
53.2196 0.552
53.2292 0.401
53.2388 0.526
53.2484 0.406
53.2580 0.458
53.2677 0.401
53.2773 0.411
53.2869 0.505
53.2965 0.521
53.3061 0.464
53.3158 0.484
53.3254 0.375
53.3350 0.411
53.3446 0.438
53.3542 0.427
53.3638 0.427
53.3735 0.432
53.3831 0.438
53.3927 0.406
53.4023 0.484
53.4119 0.432
53.4215 0.495
53.4312 0.443
53.4408 0.359
53.4504 0.469
53.4600 0.448
53.4696 0.453
53.4792 0.479
53.4889 0.474
53.4985 0.531
53.5081 0.432
53.5177 0.427
53.5273 0.443
53.5369 0.458
53.5466 0.401
53.5562 0.609
53.5658 0.432
53.5754 0.453
53.5850 0.536
53.5946 0.458
53.6043 0.453
53.6139 0.573
53.6235 0.573
53.6331 0.474
53.6427 0.484
53.6523 0.521
53.6620 0.427
53.6716 0.474
53.6812 0.464
53.6908 0.448
53.7004 0.422
53.7100 0.443
53.7197 0.516
53.7293 0.547
53.7389 0.443
53.7485 0.380
53.7581 0.531
53.7677 0.401
53.7774 0.370
53.7870 0.396
53.7966 0.427
53.8062 0.458
53.8158 0.422
53.8255 0.552
53.8351 0.458
53.8447 0.370
53.8543 0.536
53.8639 0.536
53.8735 0.448
53.8832 0.474
53.8928 0.469
53.9024 0.417
53.9120 0.578
53.9216 0.458
53.9312 0.443
53.9409 0.474
53.9505 0.432
53.9601 0.479
53.9697 0.510
53.9793 0.505
53.9889 0.422
53.9986 0.542
54.0082 0.438
54.0178 0.521
54.0274 0.422
54.0370 0.474
54.0466 0.401
54.0563 0.474
54.0659 0.443
54.0755 0.422
54.0851 0.495
54.0947 0.448
54.1043 0.526
54.1140 0.438
54.1236 0.531
54.1332 0.505
54.1428 0.505
54.1524 0.505
54.1620 0.432
54.1717 0.490
54.1813 0.443
54.1909 0.521
54.2005 0.510
54.2101 0.484
54.2197 0.557
54.2294 0.448
54.2390 0.427
54.2486 0.484
54.2582 0.552
54.2678 0.521
54.2775 0.406
54.2871 0.453
54.2967 0.479
54.3063 0.495
54.3159 0.427
54.3255 0.490
54.3352 0.458
54.3448 0.448
54.3544 0.542
54.3640 0.464
54.3736 0.464
54.3832 0.568
54.3929 0.432
54.4025 0.453
54.4121 0.448
54.4217 0.479
54.4313 0.432
54.4409 0.469
54.4506 0.490
54.4602 0.448
54.4698 0.443
54.4794 0.531
54.4890 0.531
54.4986 0.547
54.5083 0.479
54.5179 0.474
54.5275 0.531
54.5371 0.375
54.5467 0.490
54.5563 0.406
54.5660 0.484
54.5756 0.448
54.5852 0.417
54.5948 0.505
54.6044 0.500
54.6140 0.526
54.6237 0.396
54.6333 0.469
54.6429 0.438
54.6525 0.536
54.6621 0.510
54.6717 0.349
54.6814 0.406
54.6910 0.500
54.7006 0.432
54.7102 0.594
54.7198 0.385
54.7294 0.505
54.7391 0.365
54.7487 0.500
54.7583 0.458
54.7679 0.490
54.7775 0.484
54.7872 0.380
54.7968 0.521
54.8064 0.557
54.8160 0.469
54.8256 0.474
54.8352 0.531
54.8449 0.401
54.8545 0.354
54.8641 0.406
54.8737 0.438
54.8833 0.453
54.8929 0.500
54.9026 0.453
54.9122 0.542
54.9218 0.432
54.9314 0.474
54.9410 0.479
54.9506 0.505
54.9603 0.589
54.9699 0.557
54.9795 0.495
54.9891 0.495
54.9987 0.469
55.0083 0.432
55.0180 0.432
55.0276 0.495
55.0372 0.396
55.0468 0.370
55.0564 0.359
55.0660 0.453
55.0757 0.453
55.0853 0.438
55.0949 0.505
55.1045 0.438
55.1141 0.479
55.1237 0.438
55.1334 0.385
55.1430 0.458
55.1526 0.458
55.1622 0.464
55.1718 0.474
55.1814 0.484
55.1911 0.495
55.2007 0.391
55.2103 0.484
55.2199 0.464
55.2295 0.490
55.2391 0.521
55.2488 0.375
55.2584 0.510
55.2680 0.484
55.2776 0.464
55.2872 0.443
55.2969 0.531
55.3065 0.479
55.3161 0.448
55.3257 0.479
55.3353 0.516
55.3449 0.427
55.3546 0.443
55.3642 0.370
55.3738 0.536
55.3834 0.516
55.3930 0.500
55.4026 0.458
55.4123 0.505
55.4219 0.474
55.4315 0.500
55.4411 0.474
55.4507 0.510
55.4603 0.516
55.4700 0.391
55.4796 0.516
55.4892 0.438
55.4988 0.469
55.5084 0.495
55.5180 0.417
55.5277 0.432
55.5373 0.479
55.5469 0.547
55.5565 0.432
55.5661 0.432
55.5757 0.542
55.5854 0.474
55.5950 0.406
55.6046 0.469
55.6142 0.401
55.6238 0.448
55.6334 0.458
55.6431 0.391
55.6527 0.385
55.6623 0.474
55.6719 0.365
55.6815 0.427
55.6911 0.490
55.7008 0.411
55.7104 0.396
55.7200 0.479
55.7296 0.391
55.7392 0.464
55.7488 0.417
55.7585 0.521
55.7681 0.417
55.7777 0.458
55.7873 0.490
55.7969 0.453
55.8066 0.427
55.8162 0.479
55.8258 0.443
55.8354 0.443
55.8450 0.521
55.8546 0.474
55.8643 0.495
55.8739 0.438
55.8835 0.443
55.8931 0.406
55.9027 0.469
55.9123 0.531
55.9220 0.469
55.9316 0.458
55.9412 0.490
55.9508 0.422
55.9604 0.453
55.9700 0.406
55.9797 0.385
55.9893 0.510
55.9989 0.521
56.0085 0.417
56.0181 0.479
56.0277 0.531
56.0374 0.474
56.0470 0.526
56.0566 0.526
56.0662 0.495
56.0758 0.490
56.0854 0.495
56.0951 0.490
56.1047 0.474
56.1143 0.474
56.1239 0.510
56.1335 0.531
56.1431 0.500
56.1528 0.557
56.1624 0.521
56.1720 0.490
56.1816 0.495
56.1912 0.484
56.2008 0.464
56.2105 0.495
56.2201 0.443
56.2297 0.505
56.2393 0.526
56.2489 0.432
56.2585 0.438
56.2682 0.484
56.2778 0.427
56.2874 0.448
56.2970 0.474
56.3066 0.479
56.3163 0.469
56.3259 0.479
56.3355 0.448
56.3451 0.432
56.3547 0.521
56.3643 0.438
56.3740 0.516
56.3836 0.458
56.3932 0.490
56.4028 0.505
56.4124 0.521
56.4220 0.469
56.4317 0.406
56.4413 0.448
56.4509 0.516
56.4605 0.443
56.4701 0.474
56.4797 0.505
56.4894 0.453
56.4990 0.536
56.5086 0.495
56.5182 0.479
56.5278 0.417
56.5374 0.354
56.5471 0.422
56.5567 0.589
56.5663 0.484
56.5759 0.495
56.5855 0.563
56.5951 0.458
56.6048 0.500
56.6144 0.474
56.6240 0.510
56.6336 0.323
56.6432 0.490
56.6528 0.422
56.6625 0.391
56.6721 0.359
56.6817 0.432
56.6913 0.516
56.7009 0.500
56.7105 0.490
56.7202 0.557
56.7298 0.510
56.7394 0.422
56.7490 0.552
56.7586 0.510
56.7683 0.443
56.7779 0.474
56.7875 0.536
56.7971 0.391
56.8067 0.464
56.8163 0.510
56.8260 0.495
56.8356 0.453
56.8452 0.526
56.8548 0.406
56.8644 0.417
56.8740 0.443
56.8837 0.458
56.8933 0.474
56.9029 0.458
56.9125 0.542
56.9221 0.438
56.9317 0.469
56.9414 0.406
56.9510 0.526
56.9606 0.432
56.9702 0.536
56.9798 0.396
56.9894 0.453
56.9991 0.453
57.0087 0.557
57.0183 0.474
57.0279 0.469
57.0375 0.458
57.0471 0.526
57.0568 0.443
57.0664 0.307
57.0760 0.469
57.0856 0.365
57.0952 0.432
57.1048 0.542
57.1145 0.521
57.1241 0.505
57.1337 0.396
57.1433 0.453
57.1529 0.505
57.1625 0.443
57.1722 0.453
57.1818 0.427
57.1914 0.464
57.2010 0.406
57.2106 0.411
57.2202 0.438
57.2299 0.490
57.2395 0.411
57.2491 0.417
57.2587 0.474
57.2683 0.396
57.2780 0.453
57.2876 0.521
57.2972 0.427
57.3068 0.432
57.3164 0.432
57.3260 0.474
57.3357 0.458
57.3453 0.438
57.3549 0.443
57.3645 0.427
57.3741 0.510
57.3837 0.448
57.3934 0.380
57.4030 0.458
57.4126 0.484
57.4222 0.427
57.4318 0.448
57.4414 0.516
57.4511 0.432
57.4607 0.521
57.4703 0.536
57.4799 0.484
57.4895 0.443
57.4991 0.464
57.5088 0.458
57.5184 0.599
57.5280 0.531
57.5376 0.411
57.5472 0.469
57.5568 0.427
57.5665 0.411
57.5761 0.490
57.5857 0.370
57.5953 0.563
57.6049 0.432
57.6145 0.495
57.6242 0.573
57.6338 0.469
57.6434 0.469
57.6530 0.391
57.6626 0.453
57.6722 0.448
57.6819 0.396
57.6915 0.474
57.7011 0.531
57.7107 0.432
57.7203 0.495
57.7299 0.469
57.7396 0.484
57.7492 0.563
57.7588 0.547
57.7684 0.375
57.7780 0.380
57.7877 0.479
57.7973 0.453
57.8069 0.568
57.8165 0.453
57.8261 0.500
57.8357 0.432
57.8454 0.438
57.8550 0.531
57.8646 0.490
57.8742 0.427
57.8838 0.391
57.8934 0.484
57.9031 0.422
57.9127 0.469
57.9223 0.427
57.9319 0.516
57.9415 0.464
57.9511 0.464
57.9608 0.521
57.9704 0.531
57.9800 0.500
57.9896 0.474
57.9992 0.500
58.0088 0.443
58.0185 0.479
58.0281 0.422
58.0377 0.406
58.0473 0.464
58.0569 0.438
58.0665 0.526
58.0762 0.484
58.0858 0.521
58.0954 0.573
58.1050 0.479
58.1146 0.474
58.1242 0.526
58.1339 0.458
58.1435 0.458
58.1531 0.448
58.1627 0.401
58.1723 0.474
58.1819 0.432
58.1916 0.458
58.2012 0.536
58.2108 0.469
58.2204 0.469
58.2300 0.448
58.2396 0.500
58.2493 0.422
58.2589 0.438
58.2685 0.464
58.2781 0.432
58.2877 0.516
58.2974 0.411
58.3070 0.563
58.3166 0.500
58.3262 0.359
58.3358 0.516
58.3454 0.531
58.3551 0.406
58.3647 0.453
58.3743 0.443
58.3839 0.443
58.3935 0.458
58.4031 0.438
58.4128 0.490
58.4224 0.453
58.4320 0.510
58.4416 0.500
58.4512 0.453
58.4608 0.443
58.4705 0.427
58.4801 0.443
58.4897 0.365
58.4993 0.521
58.5089 0.490
58.5185 0.474
58.5282 0.406
58.5378 0.375
58.5474 0.438
58.5570 0.547
58.5666 0.469
58.5762 0.448
58.5859 0.479
58.5955 0.521
58.6051 0.484
58.6147 0.500
58.6243 0.427
58.6339 0.505
58.6436 0.458
58.6532 0.448
58.6628 0.500
58.6724 0.432
58.6820 0.448
58.6916 0.516
58.7013 0.490
58.7109 0.458
58.7205 0.531
58.7301 0.490
58.7397 0.396
58.7493 0.505
58.7590 0.484
58.7686 0.531
58.7782 0.453
58.7878 0.505
58.7974 0.448
58.8071 0.417
58.8167 0.510
58.8263 0.432
58.8359 0.531
58.8455 0.500
58.8551 0.443
58.8648 0.453
58.8744 0.484
58.8840 0.552
58.8936 0.500
58.9032 0.510
58.9128 0.536
58.9225 0.469
58.9321 0.427
58.9417 0.474
58.9513 0.422
58.9609 0.594
58.9705 0.432
58.9802 0.458
58.9898 0.552
58.9994 0.427
59.0090 0.500
59.0186 0.474
59.0282 0.578
59.0379 0.411
59.0475 0.438
59.0571 0.438
59.0667 0.484
59.0763 0.479
59.0859 0.594
59.0956 0.458
59.1052 0.500
59.1148 0.495
59.1244 0.458
59.1340 0.427
59.1436 0.401
59.1533 0.422
59.1629 0.500
59.1725 0.542
59.1821 0.479
59.1917 0.443
59.2013 0.385
59.2110 0.547
59.2206 0.547
59.2302 0.385
59.2398 0.536
59.2494 0.469
59.2591 0.432
59.2687 0.526
59.2783 0.458
59.2879 0.474
59.2975 0.510
59.3071 0.411
59.3168 0.406
59.3264 0.484
59.3360 0.438
59.3456 0.453
59.3552 0.516
59.3648 0.547
59.3745 0.500
59.3841 0.391
59.3937 0.469
59.4033 0.484
59.4129 0.464
59.4225 0.484
59.4322 0.505
59.4418 0.448
59.4514 0.516
59.4610 0.422
59.4706 0.458
59.4802 0.443
59.4899 0.443
59.4995 0.391
59.5091 0.495
59.5187 0.438
59.5283 0.484
59.5379 0.432
59.5476 0.557
59.5572 0.458
59.5668 0.516
59.5764 0.380
59.5860 0.536
59.5956 0.536
59.6053 0.521
59.6149 0.495
59.6245 0.536
59.6341 0.526
59.6437 0.516
59.6533 0.563
59.6630 0.536
59.6726 0.531
59.6822 0.526
59.6918 0.557
59.7014 0.495
59.7110 0.547
59.7207 0.536
59.7303 0.531
59.7399 0.479
59.7495 0.469
59.7591 0.464
59.7688 0.500
59.7784 0.557
59.7880 0.651
59.7976 0.474
59.8072 0.594
59.8168 0.484
59.8265 0.516
59.8361 0.536
59.8457 0.573
59.8553 0.646
59.8649 0.552
59.8745 0.589
59.8842 0.604
59.8938 0.615
59.9034 0.729
59.9130 0.578
59.9226 0.719
59.9322 0.823
59.9419 0.995
59.9515 0.943
59.9611 1.083
59.9707 0.932
59.9803 1.005
59.9899 0.870
59.9996 0.807
60.0092 0.766
60.0188 0.578
60.0284 0.609
60.0380 0.625
60.0476 0.667
60.0573 0.625
60.0669 0.568
60.0765 0.698
60.0861 0.651
60.0957 0.703
60.1053 0.818
60.1150 0.807
60.1246 0.755
60.1342 0.745
60.1438 0.755
60.1534 0.651
60.1630 0.745
60.1727 0.703
60.1823 0.536
60.1919 0.589
60.2015 0.547
60.2111 0.536
60.2207 0.672
60.2304 0.661
60.2400 0.646
60.2496 0.490
60.2592 0.510
60.2688 0.510
60.2785 0.458
60.2881 0.578
60.2977 0.526
60.3073 0.542
60.3169 0.526
60.3265 0.531
60.3362 0.490
60.3458 0.510
60.3554 0.484
60.3650 0.552
60.3746 0.458
60.3842 0.495
60.3939 0.484
60.4035 0.500
60.4131 0.521
60.4227 0.500
60.4323 0.552
60.4419 0.302
60.4516 0.474
60.4612 0.526
60.4708 0.443
60.4804 0.474
60.4900 0.448
60.4996 0.578
60.5093 0.552
60.5189 0.458
60.5285 0.521
60.5381 0.427
60.5477 0.479
60.5573 0.453
60.5670 0.526
60.5766 0.505
60.5862 0.526
60.5958 0.380
60.6054 0.464
60.6150 0.563
60.6247 0.380
60.6343 0.401
60.6439 0.536
60.6535 0.443
60.6631 0.505
60.6727 0.526
60.6824 0.500
60.6920 0.552
60.7016 0.417
60.7112 0.677
60.7208 0.484
60.7304 0.531
60.7401 0.526
60.7497 0.620
60.7593 0.594
60.7689 0.578
60.7785 0.516
60.7882 0.510
60.7978 0.615
60.8074 0.526
60.8170 0.464
60.8266 0.547
60.8362 0.521
60.8459 0.542
60.8555 0.438
60.8651 0.500
60.8747 0.500
60.8843 0.526
60.8939 0.432
60.9036 0.573
60.9132 0.448
60.9228 0.526
60.9324 0.531
60.9420 0.458
60.9516 0.516
60.9613 0.521
60.9709 0.531
60.9805 0.500
60.9901 0.479
60.9997 0.536
61.0093 0.510
61.0190 0.479
61.0286 0.401
61.0382 0.453
61.0478 0.578
61.0574 0.526
61.0670 0.484
61.0767 0.490
61.0863 0.479
61.0959 0.484
61.1055 0.495
61.1151 0.432
61.1247 0.521
61.1344 0.516
61.1440 0.464
61.1536 0.568
61.1632 0.589
61.1728 0.490
61.1824 0.406
61.1921 0.406
61.2017 0.479
61.2113 0.573
61.2209 0.406
61.2305 0.542
61.2401 0.401
61.2498 0.536
61.2594 0.573
61.2690 0.500
61.2786 0.500
61.2882 0.422
61.2979 0.547
61.3075 0.510
61.3171 0.464
61.3267 0.469
61.3363 0.536
61.3459 0.521
61.3556 0.458
61.3652 0.438
61.3748 0.427
61.3844 0.453
61.3940 0.484
61.4036 0.500
61.4133 0.458
61.4229 0.411
61.4325 0.448
61.4421 0.552
61.4517 0.583
61.4613 0.443
61.4710 0.505
61.4806 0.365
61.4902 0.438
61.4998 0.521
61.5094 0.490
61.5190 0.427
61.5287 0.474
61.5383 0.432
61.5479 0.474
61.5575 0.573
61.5671 0.479
61.5767 0.438
61.5864 0.547
61.5960 0.458
61.6056 0.516
61.6152 0.443
61.6248 0.422
61.6344 0.490
61.6441 0.411
61.6537 0.536
61.6633 0.458
61.6729 0.573
61.6825 0.458
61.6921 0.495
61.7018 0.536
61.7114 0.495
61.7210 0.547
61.7306 0.510
61.7402 0.479
61.7499 0.490
61.7595 0.516
61.7691 0.453
61.7787 0.542
61.7883 0.542
61.7979 0.375
61.8076 0.427
61.8172 0.542
61.8268 0.417
61.8364 0.380
61.8460 0.411
61.8556 0.557
61.8653 0.573
61.8749 0.594
61.8845 0.401
61.8941 0.479
61.9037 0.438
61.9133 0.500
61.9230 0.557
61.9326 0.495
61.9422 0.495
61.9518 0.474
61.9614 0.417
61.9710 0.484
61.9807 0.464
61.9903 0.510
61.9999 0.510
62.0095 0.453
62.0191 0.422
62.0287 0.469
62.0384 0.469
62.0480 0.458
62.0576 0.479
62.0672 0.510
62.0768 0.531
62.0864 0.370
62.0961 0.458
62.1057 0.469
62.1153 0.542
62.1249 0.521
62.1345 0.500
62.1441 0.479
62.1538 0.458
62.1634 0.427
62.1730 0.557
62.1826 0.432
62.1922 0.495
62.2018 0.438
62.2115 0.500
62.2211 0.495
62.2307 0.411
62.2403 0.490
62.2499 0.536
62.2596 0.469
62.2692 0.552
62.2788 0.531
62.2884 0.547
62.2980 0.526
62.3076 0.464
62.3173 0.500
62.3269 0.490
62.3365 0.490
62.3461 0.458
62.3557 0.474
62.3653 0.469
62.3750 0.411
62.3846 0.469
62.3942 0.474
62.4038 0.396
62.4134 0.469
62.4230 0.417
62.4327 0.469
62.4423 0.474
62.4519 0.484
62.4615 0.438
62.4711 0.547
62.4807 0.453
62.4904 0.411
62.5000 0.490
62.5096 0.432
62.5192 0.474
62.5288 0.495
62.5384 0.521
62.5481 0.328
62.5577 0.568
62.5673 0.490
62.5769 0.469
62.5865 0.411
62.5961 0.448
62.6058 0.469
62.6154 0.432
62.6250 0.505
62.6346 0.422
62.6442 0.432
62.6538 0.484
62.6635 0.432
62.6731 0.391
62.6827 0.516
62.6923 0.484
62.7019 0.484
62.7115 0.474
62.7212 0.547
62.7308 0.495
62.7404 0.495
62.7500 0.464
62.7596 0.568
62.7693 0.448
62.7789 0.505
62.7885 0.484
62.7981 0.391
62.8077 0.458
62.8173 0.521
62.8270 0.427
62.8366 0.490
62.8462 0.479
62.8558 0.542
62.8654 0.495
62.8750 0.406
62.8847 0.557
62.8943 0.536
62.9039 0.573
62.9135 0.427
62.9231 0.516
62.9327 0.495
62.9424 0.500
62.9520 0.474
62.9616 0.531
62.9712 0.474
62.9808 0.521
62.9904 0.505
63.0001 0.422
63.0097 0.443
63.0193 0.479
63.0289 0.490
63.0385 0.448
63.0481 0.578
63.0578 0.458
63.0674 0.484
63.0770 0.464
63.0866 0.557
63.0962 0.422
63.1058 0.474
63.1155 0.557
63.1251 0.438
63.1347 0.490
63.1443 0.536
63.1539 0.469
63.1635 0.443
63.1732 0.453
63.1828 0.521
63.1924 0.432
63.2020 0.500
63.2116 0.552
63.2212 0.505
63.2309 0.500
63.2405 0.453
63.2501 0.531
63.2597 0.568
63.2693 0.521
63.2790 0.557
63.2886 0.484
63.2982 0.448
63.3078 0.557
63.3174 0.448
63.3270 0.391
63.3367 0.578
63.3463 0.448
63.3559 0.615
63.3655 0.573
63.3751 0.443
63.3847 0.443
63.3944 0.479
63.4040 0.484
63.4136 0.500
63.4232 0.432
63.4328 0.458
63.4424 0.495
63.4521 0.458
63.4617 0.438
63.4713 0.411
63.4809 0.510
63.4905 0.448
63.5001 0.385
63.5098 0.495
63.5194 0.526
63.5290 0.479
63.5386 0.484
63.5482 0.536
63.5578 0.448
63.5675 0.453
63.5771 0.516
63.5867 0.484
63.5963 0.385
63.6059 0.495
63.6155 0.521
63.6252 0.490
63.6348 0.490
63.6444 0.490
63.6540 0.411
63.6636 0.458
63.6732 0.552
63.6829 0.536
63.6925 0.474
63.7021 0.484
63.7117 0.500
63.7213 0.484
63.7310 0.510
63.7406 0.490
63.7502 0.500
63.7598 0.490
63.7694 0.401
63.7790 0.578
63.7887 0.474
63.7983 0.469
63.8079 0.432
63.8175 0.443
63.8271 0.448
63.8367 0.526
63.8464 0.516
63.8560 0.495
63.8656 0.432
63.8752 0.505
63.8848 0.505
63.8944 0.583
63.9041 0.521
63.9137 0.495
63.9233 0.474
63.9329 0.490
63.9425 0.516
63.9521 0.427
63.9618 0.484
63.9714 0.411
63.9810 0.464
63.9906 0.458
64.0002 0.495
64.0098 0.469
64.0195 0.510
64.0291 0.563
64.0387 0.448
64.0483 0.385
64.0579 0.635
64.0675 0.516
64.0772 0.547
64.0868 0.422
64.0964 0.474
64.1060 0.495
64.1156 0.568
64.1252 0.479
64.1349 0.443
64.1445 0.401
64.1541 0.495
64.1637 0.448
64.1733 0.479
64.1829 0.526
64.1926 0.500
64.2022 0.505
64.2118 0.458
64.2214 0.464
64.2310 0.552
64.2407 0.438
64.2503 0.448
64.2599 0.469
64.2695 0.479
64.2791 0.484
64.2887 0.443
64.2984 0.438
64.3080 0.490
64.3176 0.500
64.3272 0.391
64.3368 0.458
64.3464 0.458
64.3561 0.500
64.3657 0.427
64.3753 0.484
64.3849 0.568
64.3945 0.443
64.4041 0.552
64.4138 0.438
64.4234 0.448
64.4330 0.417
64.4426 0.458
64.4522 0.510
64.4618 0.349
64.4715 0.526
64.4811 0.552
64.4907 0.417
64.5003 0.438
64.5099 0.542
64.5195 0.422
64.5292 0.521
64.5388 0.542
64.5484 0.490
64.5580 0.432
64.5676 0.479
64.5772 0.411
64.5869 0.500
64.5965 0.458
64.6061 0.526
64.6157 0.479
64.6253 0.469
64.6349 0.474
64.6446 0.438
64.6542 0.427
64.6638 0.339
64.6734 0.500
64.6830 0.443
64.6926 0.427
64.7023 0.505
64.7119 0.615
64.7215 0.495
64.7311 0.453
64.7407 0.448
64.7504 0.484
64.7600 0.490
64.7696 0.448
64.7792 0.547
64.7888 0.516
64.7984 0.474
64.8081 0.458
64.8177 0.474
64.8273 0.479
64.8369 0.490
64.8465 0.552
64.8561 0.536
64.8658 0.438
64.8754 0.474
64.8850 0.417
64.8946 0.516
64.9042 0.521
64.9138 0.536
64.9235 0.521
64.9331 0.438
64.9427 0.557
64.9523 0.464
64.9619 0.411
64.9715 0.500
64.9812 0.552
64.9908 0.505
65.0004 0.531
65.0100 0.432
65.0196 0.505
65.0292 0.495
65.0389 0.391
65.0485 0.510
65.0581 0.469
65.0677 0.547
65.0773 0.484
65.0869 0.464
65.0966 0.521
65.1062 0.443
65.1158 0.620
65.1254 0.385
65.1350 0.516
65.1446 0.526
65.1543 0.516
65.1639 0.422
65.1735 0.443
65.1831 0.641
65.1927 0.495
65.2023 0.495
65.2120 0.370
65.2216 0.406
65.2312 0.563
65.2408 0.380
65.2504 0.578
65.2601 0.411
65.2697 0.458
65.2793 0.531
65.2889 0.490
65.2985 0.510
65.3081 0.458
65.3178 0.411
65.3274 0.521
65.3370 0.406
65.3466 0.547
65.3562 0.542
65.3658 0.469
65.3755 0.479
65.3851 0.469
65.3947 0.406
65.4043 0.453
65.4139 0.401
65.4235 0.521
65.4332 0.380
65.4428 0.531
65.4524 0.594
65.4620 0.531
65.4716 0.552
65.4812 0.495
65.4909 0.464
65.5005 0.401
65.5101 0.458
65.5197 0.474
65.5293 0.479
65.5389 0.401
65.5486 0.578
65.5582 0.458
65.5678 0.448
65.5774 0.479
65.5870 0.453
65.5966 0.578
65.6063 0.443
65.6159 0.453
65.6255 0.557
65.6351 0.448
65.6447 0.531
65.6543 0.510
65.6640 0.464
65.6736 0.427
65.6832 0.391
65.6928 0.464
65.7024 0.479
65.7120 0.411
65.7217 0.417
65.7313 0.469
65.7409 0.521
65.7505 0.474
65.7601 0.630
65.7698 0.542
65.7794 0.458
65.7890 0.557
65.7986 0.464
65.8082 0.458
65.8178 0.510
65.8275 0.526
65.8371 0.469
65.8467 0.479
65.8563 0.432
65.8659 0.443
65.8755 0.469
65.8852 0.516
65.8948 0.552
65.9044 0.516
65.9140 0.563
65.9236 0.474
65.9332 0.495
65.9429 0.516
65.9525 0.458
65.9621 0.469
65.9717 0.500
65.9813 0.495
65.9909 0.411
66.0006 0.464
66.0102 0.469
66.0198 0.510
66.0294 0.453
66.0390 0.516
66.0486 0.474
66.0583 0.453
66.0679 0.542
66.0775 0.531
66.0871 0.490
66.0967 0.474
66.1063 0.516
66.1160 0.536
66.1256 0.375
66.1352 0.448
66.1448 0.495
66.1544 0.495
66.1640 0.458
66.1737 0.484
66.1833 0.495
66.1929 0.500
66.2025 0.516
66.2121 0.443
66.2218 0.458
66.2314 0.453
66.2410 0.490
66.2506 0.521
66.2602 0.427
66.2698 0.339
66.2795 0.490
66.2891 0.385
66.2987 0.505
66.3083 0.505
66.3179 0.469
66.3275 0.391
66.3372 0.516
66.3468 0.406
66.3564 0.531
66.3660 0.453
66.3756 0.417
66.3852 0.401
66.3949 0.464
66.4045 0.443
66.4141 0.396
66.4237 0.490
66.4333 0.552
66.4429 0.531
66.4526 0.448
66.4622 0.380
66.4718 0.484
66.4814 0.453
66.4910 0.427
66.5006 0.484
66.5103 0.385
66.5199 0.453
66.5295 0.536
66.5391 0.583
66.5487 0.516
66.5583 0.531
66.5680 0.531
66.5776 0.443
66.5872 0.500
66.5968 0.521
66.6064 0.604
66.6160 0.500
66.6257 0.448
66.6353 0.505
66.6449 0.469
66.6545 0.516
66.6641 0.536
66.6737 0.453
66.6834 0.495
66.6930 0.380
66.7026 0.427
66.7122 0.406
66.7218 0.370
66.7315 0.453
66.7411 0.604
66.7507 0.495
66.7603 0.490
66.7699 0.443
66.7795 0.427
66.7892 0.469
66.7988 0.484
66.8084 0.495
66.8180 0.495
66.8276 0.422
66.8372 0.484
66.8469 0.490
66.8565 0.438
66.8661 0.474
66.8757 0.505
66.8853 0.505
66.8949 0.542
66.9046 0.495
66.9142 0.573
66.9238 0.484
66.9334 0.422
66.9430 0.406
66.9526 0.484
66.9623 0.422
66.9719 0.474
66.9815 0.422
66.9911 0.396
67.0007 0.510
67.0103 0.464
67.0200 0.438
67.0296 0.469
67.0392 0.438
67.0488 0.469
67.0584 0.500
67.0680 0.490
67.0777 0.479
67.0873 0.500
67.0969 0.396
67.1065 0.505
67.1161 0.510
67.1257 0.401
67.1354 0.469
67.1450 0.510
67.1546 0.448
67.1642 0.635
67.1738 0.490
67.1834 0.474
67.1931 0.453
67.2027 0.479
67.2123 0.443
67.2219 0.427
67.2315 0.505
67.2412 0.490
67.2508 0.490
67.2604 0.417
67.2700 0.432
67.2796 0.484
67.2892 0.448
67.2989 0.453
67.3085 0.443
67.3181 0.417
67.3277 0.578
67.3373 0.479
67.3469 0.443
67.3566 0.495
67.3662 0.490
67.3758 0.422
67.3854 0.490
67.3950 0.490
67.4046 0.443
67.4143 0.526
67.4239 0.479
67.4335 0.469
67.4431 0.464
67.4527 0.401
67.4623 0.464
67.4720 0.359
67.4816 0.448
67.4912 0.448
67.5008 0.490
67.5104 0.375
67.5200 0.464
67.5297 0.510
67.5393 0.479
67.5489 0.443
67.5585 0.526
67.5681 0.464
67.5777 0.531
67.5874 0.542
67.5970 0.464
67.6066 0.594
67.6162 0.406
67.6258 0.474
67.6354 0.526
67.6451 0.458
67.6547 0.411
67.6643 0.469
67.6739 0.406
67.6835 0.406
67.6931 0.516
67.7028 0.469
67.7124 0.453
67.7220 0.406
67.7316 0.464
67.7412 0.542
67.7509 0.500
67.7605 0.401
67.7701 0.464
67.7797 0.531
67.7893 0.458
67.7989 0.474
67.8086 0.490
67.8182 0.448
67.8278 0.536
67.8374 0.490
67.8470 0.474
67.8566 0.505
67.8663 0.458
67.8759 0.516
67.8855 0.438
67.8951 0.531
67.9047 0.521
67.9143 0.474
67.9240 0.370
67.9336 0.484
67.9432 0.495
67.9528 0.516
67.9624 0.443
67.9720 0.474
67.9817 0.443
67.9913 0.516
68.0009 0.458
68.0105 0.479
68.0201 0.453
68.0297 0.490
68.0394 0.474
68.0490 0.552
68.0586 0.479
68.0682 0.505
68.0778 0.536
68.0874 0.500
68.0971 0.490
68.1067 0.453
68.1163 0.448
68.1259 0.547
68.1355 0.495
68.1451 0.531
68.1548 0.448
68.1644 0.500
68.1740 0.521
68.1836 0.484
68.1932 0.458
68.2028 0.490
68.2125 0.464
68.2221 0.484
68.2317 0.495
68.2413 0.417
68.2509 0.464
68.2606 0.464
68.2702 0.484
68.2798 0.526
68.2894 0.391
68.2990 0.479
68.3086 0.401
68.3183 0.422
68.3279 0.458
68.3375 0.490
68.3471 0.396
68.3567 0.448
68.3663 0.474
68.3760 0.458
68.3856 0.458
68.3952 0.464
68.4048 0.453
68.4144 0.365
68.4240 0.505
68.4337 0.469
68.4433 0.464
68.4529 0.443
68.4625 0.469
68.4721 0.406
68.4817 0.422
68.4914 0.484
68.5010 0.526
68.5106 0.427
68.5202 0.505
68.5298 0.422
68.5394 0.344
68.5491 0.458
68.5587 0.536
68.5683 0.438
68.5779 0.469
68.5875 0.521
68.5971 0.438
68.6068 0.453
68.6164 0.469
68.6260 0.484
68.6356 0.354
68.6452 0.443
68.6548 0.479
68.6645 0.505
68.6741 0.411
68.6837 0.443
68.6933 0.432
68.7029 0.422
68.7126 0.453
68.7222 0.484
68.7318 0.432
68.7414 0.443
68.7510 0.422
68.7606 0.464
68.7703 0.422
68.7799 0.490
68.7895 0.526
68.7991 0.531
68.8087 0.521
68.8183 0.464
68.8280 0.464
68.8376 0.469
68.8472 0.469
68.8568 0.474
68.8664 0.453
68.8760 0.542
68.8857 0.448
68.8953 0.469
68.9049 0.411
68.9145 0.443
68.9241 0.448
68.9337 0.448
68.9434 0.484
68.9530 0.417
68.9626 0.417
68.9722 0.458
68.9818 0.443
68.9914 0.406
69.0011 0.469
69.0107 0.505
69.0203 0.505
69.0299 0.359
69.0395 0.438
69.0491 0.458
69.0588 0.432
69.0684 0.432
69.0780 0.375
69.0876 0.453
69.0972 0.474
69.1068 0.417
69.1165 0.443
69.1261 0.375
69.1357 0.484
69.1453 0.401
69.1549 0.443
69.1645 0.484
69.1742 0.432
69.1838 0.495
69.1934 0.438
69.2030 0.474
69.2126 0.370
69.2223 0.516
69.2319 0.406
69.2415 0.458
69.2511 0.490
69.2607 0.370
69.2703 0.406
69.2800 0.516
69.2896 0.458
69.2992 0.484
69.3088 0.479
69.3184 0.417
69.3280 0.495
69.3377 0.469
69.3473 0.495
69.3569 0.401
69.3665 0.479
69.3761 0.443
69.3857 0.323
69.3954 0.422
69.4050 0.479
69.4146 0.396
69.4242 0.526
69.4338 0.510
69.4434 0.464
69.4531 0.484
69.4627 0.370
69.4723 0.406
69.4819 0.375
69.4915 0.464
69.5011 0.438
69.5108 0.469
69.5204 0.443
69.5300 0.531
69.5396 0.469
69.5492 0.443
69.5588 0.417
69.5685 0.406
69.5781 0.396
69.5877 0.396
69.5973 0.583
69.6069 0.422
69.6165 0.505
69.6262 0.505
69.6358 0.385
69.6454 0.432
69.6550 0.510
69.6646 0.396
69.6742 0.411
69.6839 0.417
69.6935 0.453
69.7031 0.359
69.7127 0.443
69.7223 0.505
69.7320 0.417
69.7416 0.432
69.7512 0.490
69.7608 0.339
69.7704 0.474
69.7800 0.521
69.7897 0.385
69.7993 0.458
69.8089 0.510
69.8185 0.557
69.8281 0.417
69.8377 0.464
69.8474 0.380
69.8570 0.432
69.8666 0.510
69.8762 0.438
69.8858 0.526
69.8954 0.448
69.9051 0.422
69.9147 0.385
69.9243 0.448
69.9339 0.469
69.9435 0.318
69.9531 0.448
69.9628 0.521
69.9724 0.432
69.9820 0.401
69.9916 0.505
70.0012 0.422
70.0108 0.448
